# Two-Theta Intensity Error
10.000000 595.000000 24.392622
10.020432 581.000000 24.103942
10.040864 565.000000 23.769729
10.061296 549.000000 23.430749
10.081728 532.000000 23.065125
10.102160 549.000000 23.430749
10.122592 526.000000 22.934690
10.143024 579.000000 24.062419
10.163456 568.000000 23.832751
10.183888 550.000000 23.452079
10.204320 552.000000 23.494680
10.224752 525.000000 22.912878
10.245184 524.000000 22.891046
10.265616 543.000000 23.302360
10.286048 562.000000 23.706539
10.306480 521.000000 22.825424
10.326912 583.000000 24.145393
10.347344 562.000000 23.706539
10.367776 503.000000 22.427661
10.388208 548.000000 23.409400
10.408640 552.000000 23.494680
10.429072 525.000000 22.912878
10.449504 521.000000 22.825424
10.469936 561.000000 23.685439
10.490368 562.000000 23.706539
10.510800 525.000000 22.912878
10.531232 519.000000 22.781571
10.551664 536.000000 23.151674
10.572096 531.000000 23.043437
10.592528 514.000000 22.671568
10.612960 513.000000 22.649503
10.633392 498.000000 22.315914
10.653824 503.000000 22.427661
10.674256 513.000000 22.649503
10.694688 487.000000 22.068076
10.715120 494.000000 22.226111
10.735552 470.000000 21.679483
10.755984 537.000000 23.173260
10.776416 518.000000 22.759613
10.796848 519.000000 22.781571
10.817280 485.000000 22.022716
10.837712 480.000000 21.908902
10.858144 496.000000 22.271057
10.878576 481.000000 21.931712
10.899008 509.000000 22.561028
10.919440 468.000000 21.633308
10.939872 444.000000 21.071308
10.960304 481.000000 21.931712
10.980736 516.000000 22.715633
11.001168 500.000000 22.360680
11.021600 472.000000 21.725561
11.042032 480.000000 21.908902
11.062464 489.000000 22.113344
11.082896 503.000000 22.427661
11.103327 450.000000 21.213203
11.123759 454.000000 21.307276
11.144191 475.000000 21.794495
11.164623 446.000000 21.118712
11.185055 445.000000 21.095023
11.205487 468.000000 21.633308
11.225919 470.000000 21.679483
11.246351 462.000000 21.494185
11.266783 487.000000 22.068076
11.287215 472.000000 21.725561
11.307647 450.000000 21.213203
11.328079 480.000000 21.908902
11.348511 490.000000 22.135944
11.368943 429.000000 20.712315
11.389375 446.000000 21.118712
11.409807 445.000000 21.095023
11.430239 466.000000 21.587033
11.450671 422.000000 20.542639
11.471103 474.000000 21.771541
11.491535 461.000000 21.470911
11.511967 438.000000 20.928450
11.532399 403.000000 20.074860
11.552831 398.000000 19.949937
11.573263 439.000000 20.952327
11.593695 435.000000 20.856654
11.614127 434.000000 20.832667
11.634559 439.000000 20.952327
11.654991 419.000000 20.469489
11.675423 428.000000 20.688161
11.695855 449.000000 21.189620
11.716287 445.000000 21.095023
11.736719 397.000000 19.924859
11.757151 464.000000 21.540659
11.777583 444.000000 21.071308
11.798015 416.000000 20.396078
11.818447 442.000000 21.023796
11.838879 410.000000 20.248457
11.859311 424.000000 20.591260
11.879743 420.000000 20.493902
11.900175 431.000000 20.760539
11.920607 442.000000 21.023796
11.941039 458.000000 21.400935
11.961471 474.000000 21.771541
11.981903 483.000000 21.977261
12.002335 467.000000 21.610183
12.022767 514.000000 22.671568
12.043199 516.000000 22.715633
12.063631 489.000000 22.113344
12.084063 459.000000 21.424285
12.104495 417.000000 20.420578
12.124927 447.000000 21.142375
12.145359 375.000000 19.364917
12.165791 374.000000 19.339080
12.186223 428.000000 20.688161
12.206655 413.000000 20.322401
12.227087 403.000000 20.074860
12.247519 402.000000 20.049938
12.267951 362.000000 19.026298
12.288383 402.000000 20.049938
12.308815 379.000000 19.467922
12.329247 356.000000 18.867962
12.349679 374.000000 19.339080
12.370111 384.000000 19.595918
12.390543 381.000000 19.519221
12.410975 348.000000 18.654758
12.431407 314.000000 17.720045
12.451839 381.000000 19.519221
12.472271 373.000000 19.313208
12.492703 313.000000 17.691806
12.513135 360.000000 18.973666
12.533567 347.000000 18.627936
12.553999 345.000000 18.574176
12.574431 323.000000 17.972201
12.594863 301.000000 17.349352
12.615295 338.000000 18.384776
12.635727 368.000000 19.183326
12.656159 337.000000 18.357560
12.676591 331.000000 18.193405
12.697023 317.000000 17.804494
12.717455 311.000000 17.635192
12.737887 329.000000 18.138357
12.758319 336.000000 18.330303
12.778751 359.000000 18.947295
12.799183 312.000000 17.663522
12.819615 317.000000 17.804494
12.840047 330.000000 18.165902
12.860479 312.000000 17.663522
12.880911 315.000000 17.748239
12.901343 300.000000 17.320508
12.921775 315.000000 17.748239
12.942207 353.000000 18.788294
12.962639 309.000000 17.578396
12.983071 326.000000 18.055470
13.003503 335.000000 18.303005
13.023935 303.000000 17.406895
13.044367 315.000000 17.748239
13.064799 290.000000 17.029386
13.085231 275.000000 16.583124
13.105663 292.000000 17.088007
13.126095 298.000000 17.262677
13.146527 291.000000 17.058722
13.166959 301.000000 17.349352
13.187391 287.000000 16.941074
13.207823 303.000000 17.406895
13.228255 261.000000 16.155494
13.248687 289.000000 17.000000
13.269119 281.000000 16.763055
13.289550 307.000000 17.521415
13.309982 289.000000 17.000000
13.330414 319.000000 17.860571
13.350846 263.000000 16.217275
13.371278 257.000000 16.031220
13.391710 272.000000 16.492423
13.412142 268.000000 16.370706
13.432574 289.000000 17.000000
13.453006 293.000000 17.117243
13.473438 273.000000 16.522712
13.493870 254.000000 15.937377
13.514302 268.000000 16.370706
13.534734 272.000000 16.492423
13.555166 301.000000 17.349352
13.575598 274.000000 16.552945
13.596030 264.000000 16.248077
13.616462 259.000000 16.093477
13.636894 276.000000 16.613248
13.657326 254.000000 15.937377
13.677758 258.000000 16.062378
13.698190 275.000000 16.583124
13.718622 278.000000 16.673332
13.739054 312.000000 17.663522
13.759486 363.000000 19.052559
13.779918 342.000000 18.493242
13.800350 340.000000 18.439089
13.820782 365.000000 19.104973
13.841214 336.000000 18.330303
13.861646 308.000000 17.549929
13.882078 274.000000 16.552945
13.902510 235.000000 15.329710
13.922942 241.000000 15.524175
13.943374 246.000000 15.684387
13.963806 217.000000 14.730920
13.984238 226.000000 15.033296
14.004670 246.000000 15.684387
14.025102 256.000000 16.000000
14.045534 243.000000 15.588457
14.065966 240.000000 15.491933
14.086398 262.000000 16.186414
14.106830 256.000000 16.000000
14.127262 279.000000 16.703293
14.147694 289.000000 17.000000
14.168126 283.000000 16.822604
14.188558 233.000000 15.264338
14.208990 254.000000 15.937377
14.229422 237.000000 15.394804
14.249854 240.000000 15.491933
14.270286 240.000000 15.491933
14.290718 218.000000 14.764823
14.311150 272.000000 16.492423
14.331582 241.000000 15.524175
14.352014 213.000000 14.594520
14.372446 259.000000 16.093477
14.392878 217.000000 14.730920
14.413310 253.000000 15.905974
14.433742 233.000000 15.264338
14.454174 204.000000 14.282857
14.474606 228.000000 15.099669
14.495038 206.000000 14.352700
14.515470 216.000000 14.696938
14.535902 241.000000 15.524175
14.556334 211.000000 14.525839
14.576766 230.000000 15.165751
14.597198 215.000000 14.662878
14.617630 223.000000 14.933185
14.638062 202.000000 14.212670
14.658494 213.000000 14.594520
14.678926 196.000000 14.000000
14.699358 221.000000 14.866069
14.719790 219.000000 14.798649
14.740222 175.000000 13.228757
14.760654 248.000000 15.748016
14.781086 214.000000 14.628739
14.801518 228.000000 15.099669
14.821950 209.000000 14.456832
14.842382 245.000000 15.652476
14.862814 243.000000 15.588457
14.883246 205.000000 14.317821
14.903678 197.000000 14.035669
14.924110 216.000000 14.696938
14.944542 236.000000 15.362291
14.964974 207.000000 14.387495
14.985406 193.000000 13.892444
15.005838 207.000000 14.387495
15.026270 241.000000 15.524175
15.046702 215.000000 14.662878
15.067134 236.000000 15.362291
15.087566 253.000000 15.905974
15.107998 279.000000 16.703293
15.128430 297.000000 17.233688
15.148862 364.000000 19.078784
15.169294 361.000000 19.000000
15.189726 361.000000 19.000000
15.210158 310.000000 17.606817
15.230590 268.000000 16.370706
15.251022 236.000000 15.362291
15.271454 213.000000 14.594520
15.291886 210.000000 14.491377
15.312318 215.000000 14.662878
15.332750 178.000000 13.341664
15.353182 170.000000 13.038405
15.373614 191.000000 13.820275
15.394046 193.000000 13.892444
15.414478 180.000000 13.416408
15.434910 207.000000 14.387495
15.455342 217.000000 14.730920
15.475773 201.000000 14.177447
15.496205 190.000000 13.784049
15.516637 194.000000 13.928388
15.537069 163.000000 12.767145
15.557501 184.000000 13.564660
15.577933 179.000000 13.379088
15.598365 162.000000 12.727922
15.618797 194.000000 13.928388
15.639229 179.000000 13.379088
15.659661 206.000000 14.352700
15.680093 158.000000 12.569805
15.700525 165.000000 12.845233
15.720957 162.000000 12.727922
15.741389 204.000000 14.282857
15.761821 178.000000 13.341664
15.782253 163.000000 12.767145
15.802685 165.000000 12.845233
15.823117 166.000000 12.884099
15.843549 172.000000 13.114877
15.863981 154.000000 12.409674
15.884413 169.000000 13.000000
15.904845 151.000000 12.288206
15.925277 189.000000 13.747727
15.945709 162.000000 12.727922
15.966141 174.000000 13.190906
15.986573 147.000000 12.124356
16.007005 174.000000 13.190906
16.027437 157.000000 12.529964
16.047869 152.000000 12.328828
16.068301 160.000000 12.649111
16.088733 170.000000 13.038405
16.109165 164.000000 12.806248
16.129597 171.000000 13.076697
16.150029 163.000000 12.767145
16.170461 147.000000 12.124356
16.190893 163.000000 12.767145
16.211325 168.000000 12.961481
16.231757 161.000000 12.688578
16.252189 160.000000 12.649111
16.272621 182.000000 13.490738
16.293053 160.000000 12.649111
16.313485 141.000000 11.874342
16.333917 172.000000 13.114877
16.354349 168.000000 12.961481
16.374781 169.000000 13.000000
16.395213 173.000000 13.152946
16.415645 178.000000 13.341664
16.436077 163.000000 12.767145
16.456509 156.000000 12.489996
16.476941 159.000000 12.609520
16.497373 136.000000 11.661904
16.517805 159.000000 12.609520
16.538237 166.000000 12.884099
16.558669 133.000000 11.532563
16.579101 171.000000 13.076697
16.599533 138.000000 11.747340
16.619965 137.000000 11.704700
16.640397 146.000000 12.083046
16.660829 156.000000 12.489996
16.681261 146.000000 12.083046
16.701693 160.000000 12.649111
16.722125 150.000000 12.247449
16.742557 150.000000 12.247449
16.762989 152.000000 12.328828
16.783421 159.000000 12.609520
16.803853 141.000000 11.874342
16.824285 162.000000 12.727922
16.844717 145.000000 12.041595
16.865149 137.000000 11.704700
16.885581 135.000000 11.618950
16.906013 161.000000 12.688578
16.926445 142.000000 11.916375
16.946877 165.000000 12.845233
16.967309 157.000000 12.529964
16.987741 158.000000 12.569805
17.008173 131.000000 11.445523
17.028605 151.000000 12.288206
17.049037 157.000000 12.529964
17.069469 151.000000 12.288206
17.089901 147.000000 12.124356
17.110333 157.000000 12.529964
17.130765 134.000000 11.575837
17.151197 174.000000 13.190906
17.171629 130.000000 11.401754
17.192061 157.000000 12.529964
17.212493 133.000000 11.532563
17.232925 150.000000 12.247449
17.253357 161.000000 12.688578
17.273789 127.000000 11.269428
17.294221 138.000000 11.747340
17.314653 128.000000 11.313708
17.335085 137.000000 11.704700
17.355517 159.000000 12.609520
17.375949 122.000000 11.045361
17.396381 136.000000 11.661904
17.416813 125.000000 11.180340
17.437245 149.000000 12.206556
17.457677 120.000000 10.954451
17.478109 135.000000 11.618950
17.498541 130.000000 11.401754
17.518973 136.000000 11.661904
17.539405 124.000000 11.135529
17.559837 119.000000 10.908712
17.580269 126.000000 11.224972
17.600701 130.000000 11.401754
17.621133 117.000000 10.816654
17.641565 134.000000 11.575837
17.661996 115.000000 10.723805
17.682428 135.000000 11.618950
17.702860 118.000000 10.862780
17.723292 142.000000 11.916375
17.743724 119.000000 10.908712
17.764156 122.000000 11.045361
17.784588 111.000000 10.535654
17.805020 115.000000 10.723805
17.825452 122.000000 11.045361
17.845884 115.000000 10.723805
17.866316 135.000000 11.618950
17.886748 123.000000 11.090537
17.907180 131.000000 11.445523
17.927612 130.000000 11.401754
17.948044 132.000000 11.489125
17.968476 123.000000 11.090537
17.988908 133.000000 11.532563
18.009340 129.000000 11.357817
18.029772 116.000000 10.770330
18.050204 136.000000 11.661904
18.070636 137.000000 11.704700
18.091068 126.000000 11.224972
18.111500 141.000000 11.874342
18.131932 134.000000 11.575837
18.152364 152.000000 12.328828
18.172796 149.000000 12.206556
18.193228 147.000000 12.124356
18.213660 166.000000 12.884099
18.234092 139.000000 11.789826
18.254524 152.000000 12.328828
18.274956 139.000000 11.789826
18.295388 143.000000 11.958261
18.315820 144.000000 12.000000
18.336252 162.000000 12.727922
18.356684 139.000000 11.789826
18.377116 161.000000 12.688578
18.397548 156.000000 12.489996
18.417980 156.000000 12.489996
18.438412 174.000000 13.190906
18.458844 152.000000 12.328828
18.479276 176.000000 13.266499
18.499708 170.000000 13.038405
18.520140 185.000000 13.601471
18.540572 241.000000 15.524175
18.561004 260.000000 16.124515
18.581436 308.000000 17.549929
18.601868 396.000000 19.899749
18.622300 528.000000 22.978251
18.642732 729.000000 27.000000
18.663164 1017.000000 31.890437
18.683596 1284.000000 35.832946
18.704028 1680.000000 40.987803
18.724460 1901.000000 43.600459
18.744892 1723.000000 41.509035
18.765324 1469.000000 38.327536
18.785756 1263.000000 35.538711
18.806188 965.000000 31.064449
18.826620 748.000000 27.349589
18.847052 672.000000 25.922963
18.867484 635.000000 25.199206
18.887916 630.000000 25.099801
18.908348 745.000000 27.294688
18.928780 841.000000 29.000000
18.949212 1097.000000 33.120990
18.969644 1388.000000 37.255872
18.990076 1868.000000 43.220366
19.010508 2257.000000 47.507894
19.030940 2356.000000 48.538644
19.051372 2205.000000 46.957428
19.071804 1621.000000 40.261644
19.092236 1193.000000 34.539832
19.112668 799.000000 28.266588
19.133100 481.000000 21.931712
19.153532 397.000000 19.924859
19.173964 266.000000 16.309506
19.194396 222.000000 14.899664
19.214828 194.000000 13.928388
19.235260 168.000000 12.961481
19.255692 147.000000 12.124356
19.276124 132.000000 11.489125
19.296556 135.000000 11.618950
19.316988 130.000000 11.401754
19.337420 130.000000 11.401754
19.357852 137.000000 11.704700
19.378284 117.000000 10.816654
19.398716 108.000000 10.392305
19.419148 124.000000 11.135529
19.439580 105.000000 10.246951
19.460012 112.000000 10.583005
19.480444 90.000000 9.486833
19.500876 105.000000 10.246951
19.521308 95.000000 9.746794
19.541740 95.000000 9.746794
19.562172 107.000000 10.344080
19.582604 115.000000 10.723805
19.603036 99.000000 9.949874
19.623468 96.000000 9.797959
19.643900 88.000000 9.380832
19.664332 78.000000 8.831761
19.684764 99.000000 9.949874
19.705196 96.000000 9.797959
19.725628 88.000000 9.380832
19.746060 104.000000 10.198039
19.766492 96.000000 9.797959
19.786924 108.000000 10.392305
19.807356 108.000000 10.392305
19.827788 120.000000 10.954451
19.848219 143.000000 11.958261
19.868651 157.000000 12.529964
19.889083 133.000000 11.532563
19.909515 110.000000 10.488088
19.929947 118.000000 10.862780
19.950379 105.000000 10.246951
19.970811 93.000000 9.643651
19.991243 98.000000 9.899495
20.011675 83.000000 9.110434
20.032107 90.000000 9.486833
20.052539 104.000000 10.198039
20.072971 83.000000 9.110434
20.093403 77.000000 8.774964
20.113835 94.000000 9.695360
20.134267 78.000000 8.831761
20.154699 78.000000 8.831761
20.175131 95.000000 9.746794
20.195563 77.000000 8.774964
20.215995 116.000000 10.770330
20.236427 90.000000 9.486833
20.256859 66.000000 8.124038
20.277291 83.000000 9.110434
20.297723 74.000000 8.602325
20.318155 89.000000 9.433981
20.338587 76.000000 8.717798
20.359019 83.000000 9.110434
20.379451 78.000000 8.831761
20.399883 88.000000 9.380832
20.420315 85.000000 9.219544
20.440747 82.000000 9.055385
20.461179 73.000000 8.544004
20.481611 67.000000 8.185353
20.502043 74.000000 8.602325
20.522475 101.000000 10.049876
20.542907 104.000000 10.198039
20.563339 79.000000 8.888194
20.583771 91.000000 9.539392
20.604203 84.000000 9.165151
20.624635 84.000000 9.165151
20.645067 109.000000 10.440307
20.665499 65.000000 8.062258
20.685931 68.000000 8.246211
20.706363 84.000000 9.165151
20.726795 77.000000 8.774964
20.747227 85.000000 9.219544
20.767659 86.000000 9.273618
20.788091 74.000000 8.602325
20.808523 76.000000 8.717798
20.828955 74.000000 8.602325
20.849387 64.000000 8.000000
20.869819 85.000000 9.219544
20.890251 81.000000 9.000000
20.910683 71.000000 8.426150
20.931115 85.000000 9.219544
20.951547 58.000000 7.615773
20.971979 67.000000 8.185353
20.992411 91.000000 9.539392
21.012843 73.000000 8.544004
21.033275 79.000000 8.888194
21.053707 71.000000 8.426150
21.074139 76.000000 8.717798
21.094571 81.000000 9.000000
21.115003 55.000000 7.416198
21.135435 61.000000 7.810250
21.155867 58.000000 7.615773
21.176299 79.000000 8.888194
21.196731 71.000000 8.426150
21.217163 69.000000 8.306624
21.237595 61.000000 7.810250
21.258027 81.000000 9.000000
21.278459 66.000000 8.124038
21.298891 71.000000 8.426150
21.319323 81.000000 9.000000
21.339755 74.000000 8.602325
21.360187 72.000000 8.485281
21.380619 62.000000 7.874008
21.401051 64.000000 8.000000
21.421483 79.000000 8.888194
21.441915 72.000000 8.485281
21.462347 76.000000 8.717798
21.482779 70.000000 8.366600
21.503211 51.000000 7.141428
21.523643 78.000000 8.831761
21.544075 84.000000 9.165151
21.564507 74.000000 8.602325
21.584939 80.000000 8.944272
21.605371 89.000000 9.433981
21.625803 66.000000 8.124038
21.646235 60.000000 7.745967
21.666667 88.000000 9.380832
21.687099 79.000000 8.888194
21.707531 73.000000 8.544004
21.727963 75.000000 8.660254
21.748395 77.000000 8.774964
21.768827 70.000000 8.366600
21.789259 70.000000 8.366600
21.809691 81.000000 9.000000
21.830123 70.000000 8.366600
21.850555 78.000000 8.831761
21.870987 61.000000 7.810250
21.891419 64.000000 8.000000
21.911851 74.000000 8.602325
21.932283 68.000000 8.246211
21.952715 54.000000 7.348469
21.973147 66.000000 8.124038
21.993579 74.000000 8.602325
22.014011 62.000000 7.874008
22.034442 73.000000 8.544004
22.054874 62.000000 7.874008
22.075306 65.000000 8.062258
22.095738 71.000000 8.426150
22.116170 57.000000 7.549834
22.136602 59.000000 7.681146
22.157034 74.000000 8.602325
22.177466 56.000000 7.483315
22.197898 62.000000 7.874008
22.218330 70.000000 8.366600
22.238762 75.000000 8.660254
22.259194 66.000000 8.124038
22.279626 64.000000 8.000000
22.300058 56.000000 7.483315
22.320490 63.000000 7.937254
22.340922 72.000000 8.485281
22.361354 82.000000 9.055385
22.381786 81.000000 9.000000
22.402218 65.000000 8.062258
22.422650 57.000000 7.549834
22.443082 49.000000 7.000000
22.463514 65.000000 8.062258
22.483946 55.000000 7.416198
22.504378 72.000000 8.485281
22.524810 43.000000 6.557439
22.545242 52.000000 7.211103
22.565674 79.000000 8.888194
22.586106 55.000000 7.416198
22.606538 77.000000 8.774964
22.626970 58.000000 7.615773
22.647402 67.000000 8.185353
22.667834 60.000000 7.745967
22.688266 74.000000 8.602325
22.708698 63.000000 7.937254
22.729130 64.000000 8.000000
22.749562 67.000000 8.185353
22.769994 62.000000 7.874008
22.790426 51.000000 7.141428
22.810858 52.000000 7.211103
22.831290 69.000000 8.306624
22.851722 68.000000 8.246211
22.872154 48.000000 6.928203
22.892586 77.000000 8.774964
22.913018 62.000000 7.874008
22.933450 75.000000 8.660254
22.953882 69.000000 8.306624
22.974314 61.000000 7.810250
22.994746 59.000000 7.681146
23.015178 42.000000 6.480741
23.035610 68.000000 8.246211
23.056042 68.000000 8.246211
23.076474 57.000000 7.549834
23.096906 54.000000 7.348469
23.117338 64.000000 8.000000
23.137770 45.000000 6.708204
23.158202 70.000000 8.366600
23.178634 57.000000 7.549834
23.199066 59.000000 7.681146
23.219498 46.000000 6.782330
23.239930 56.000000 7.483315
23.260362 70.000000 8.366600
23.280794 67.000000 8.185353
23.301226 58.000000 7.615773
23.321658 74.000000 8.602325
23.342090 61.000000 7.810250
23.362522 68.000000 8.246211
23.382954 59.000000 7.681146
23.403386 65.000000 8.062258
23.423818 73.000000 8.544004
23.444250 71.000000 8.426150
23.464682 70.000000 8.366600
23.485114 72.000000 8.485281
23.505546 58.000000 7.615773
23.525978 68.000000 8.246211
23.546410 57.000000 7.549834
23.566842 59.000000 7.681146
23.587274 68.000000 8.246211
23.607706 63.000000 7.937254
23.628138 68.000000 8.246211
23.648570 62.000000 7.874008
23.669002 63.000000 7.937254
23.689434 54.000000 7.348469
23.709866 58.000000 7.615773
23.730298 57.000000 7.549834
23.750730 61.000000 7.810250
23.771162 52.000000 7.211103
23.791594 63.000000 7.937254
23.812026 57.000000 7.549834
23.832458 66.000000 8.124038
23.852890 70.000000 8.366600
23.873322 64.000000 8.000000
23.893754 69.000000 8.306624
23.914186 59.000000 7.681146
23.934618 72.000000 8.485281
23.955050 64.000000 8.000000
23.975482 64.000000 8.000000
23.995914 82.000000 9.055385
24.016346 67.000000 8.185353
24.036778 78.000000 8.831761
24.057210 82.000000 9.055385
24.077642 55.000000 7.416198
24.098074 69.000000 8.306624
24.118506 61.000000 7.810250
24.138938 77.000000 8.774964
24.159370 74.000000 8.602325
24.179802 106.000000 10.295630
24.200234 86.000000 9.273618
24.220665 79.000000 8.888194
24.241097 90.000000 9.486833
24.261529 63.000000 7.937254
24.281961 69.000000 8.306624
24.302393 63.000000 7.937254
24.322825 68.000000 8.246211
24.343257 64.000000 8.000000
24.363689 63.000000 7.937254
24.384121 78.000000 8.831761
24.404553 57.000000 7.549834
24.424985 63.000000 7.937254
24.445417 73.000000 8.544004
24.465849 64.000000 8.000000
24.486281 59.000000 7.681146
24.506713 66.000000 8.124038
24.527145 49.000000 7.000000
24.547577 58.000000 7.615773
24.568009 62.000000 7.874008
24.588441 73.000000 8.544004
24.608873 65.000000 8.062258
24.629305 67.000000 8.185353
24.649737 60.000000 7.745967
24.670169 52.000000 7.211103
24.690601 55.000000 7.416198
24.711033 52.000000 7.211103
24.731465 54.000000 7.348469
24.751897 49.000000 7.000000
24.772329 59.000000 7.681146
24.792761 53.000000 7.280110
24.813193 48.000000 6.928203
24.833625 52.000000 7.211103
24.854057 56.000000 7.483315
24.874489 48.000000 6.928203
24.894921 52.000000 7.211103
24.915353 42.000000 6.480741
24.935785 51.000000 7.141428
24.956217 50.000000 7.071068
24.976649 50.000000 7.071068
24.997081 53.000000 7.280110
25.017513 66.000000 8.124038
25.037945 55.000000 7.416198
25.058377 51.000000 7.141428
25.078809 76.000000 8.717798
25.099241 47.000000 6.855655
25.119673 55.000000 7.416198
25.140105 49.000000 7.000000
25.160537 58.000000 7.615773
25.180969 47.000000 6.855655
25.201401 66.000000 8.124038
25.221833 68.000000 8.246211
25.242265 41.000000 6.403124
25.262697 58.000000 7.615773
25.283129 60.000000 7.745967
25.303561 63.000000 7.937254
25.323993 66.000000 8.124038
25.344425 64.000000 8.000000
25.364857 61.000000 7.810250
25.385289 55.000000 7.416198
25.405721 50.000000 7.071068
25.426153 57.000000 7.549834
25.446585 59.000000 7.681146
25.467017 67.000000 8.185353
25.487449 51.000000 7.141428
25.507881 62.000000 7.874008
25.528313 57.000000 7.549834
25.548745 62.000000 7.874008
25.569177 56.000000 7.483315
25.589609 58.000000 7.615773
25.610041 50.000000 7.071068
25.630473 61.000000 7.810250
25.650905 53.000000 7.280110
25.671337 60.000000 7.745967
25.691769 76.000000 8.717798
25.712201 77.000000 8.774964
25.732633 68.000000 8.246211
25.753065 102.000000 10.099505
25.773497 90.000000 9.486833
25.793929 79.000000 8.888194
25.814361 116.000000 10.770330
25.834793 123.000000 11.090537
25.855225 142.000000 11.916375
25.875657 203.000000 14.247807
25.896089 217.000000 14.730920
25.916521 266.000000 16.309506
25.936953 225.000000 15.000000
25.957385 222.000000 14.899664
25.977817 198.000000 14.071247
25.998249 145.000000 12.041595
26.018681 115.000000 10.723805
26.039113 81.000000 9.000000
26.059545 89.000000 9.433981
26.079977 76.000000 8.717798
26.100409 86.000000 9.273618
26.120841 79.000000 8.888194
26.141273 72.000000 8.485281
26.161705 75.000000 8.660254
26.182137 69.000000 8.306624
26.202569 87.000000 9.327379
26.223001 83.000000 9.110434
26.243433 80.000000 8.944272
26.263865 86.000000 9.273618
26.284297 79.000000 8.888194
26.304729 81.000000 9.000000
26.325161 78.000000 8.831761
26.345593 75.000000 8.660254
26.366025 67.000000 8.185353
26.386457 58.000000 7.615773
26.406888 56.000000 7.483315
26.427320 72.000000 8.485281
26.447752 72.000000 8.485281
26.468184 85.000000 9.219544
26.488616 78.000000 8.831761
26.509048 85.000000 9.219544
26.529480 93.000000 9.643651
26.549912 75.000000 8.660254
26.570344 76.000000 8.717798
26.590776 69.000000 8.306624
26.611208 71.000000 8.426150
26.631640 70.000000 8.366600
26.652072 73.000000 8.544004
26.672504 60.000000 7.745967
26.692936 51.000000 7.141428
26.713368 76.000000 8.717798
26.733800 58.000000 7.615773
26.754232 68.000000 8.246211
26.774664 62.000000 7.874008
26.795096 61.000000 7.810250
26.815528 55.000000 7.416198
26.835960 52.000000 7.211103
26.856392 51.000000 7.141428
26.876824 54.000000 7.348469
26.897256 54.000000 7.348469
26.917688 57.000000 7.549834
26.938120 49.000000 7.000000
26.958552 52.000000 7.211103
26.978984 57.000000 7.549834
26.999416 65.000000 8.062258
27.019848 49.000000 7.000000
27.040280 53.000000 7.280110
27.060712 50.000000 7.071068
27.081144 68.000000 8.246211
27.101576 66.000000 8.124038
27.122008 61.000000 7.810250
27.142440 49.000000 7.000000
27.162872 61.000000 7.810250
27.183304 67.000000 8.185353
27.203736 55.000000 7.416198
27.224168 79.000000 8.888194
27.244600 65.000000 8.062258
27.265032 61.000000 7.810250
27.285464 64.000000 8.000000
27.305896 79.000000 8.888194
27.326328 68.000000 8.246211
27.346760 62.000000 7.874008
27.367192 54.000000 7.348469
27.387624 65.000000 8.062258
27.408056 54.000000 7.348469
27.428488 68.000000 8.246211
27.448920 68.000000 8.246211
27.469352 52.000000 7.211103
27.489784 70.000000 8.366600
27.510216 74.000000 8.602325
27.530648 64.000000 8.000000
27.551080 58.000000 7.615773
27.571512 60.000000 7.745967
27.591944 65.000000 8.062258
27.612376 58.000000 7.615773
27.632808 62.000000 7.874008
27.653240 84.000000 9.165151
27.673672 73.000000 8.544004
27.694104 65.000000 8.062258
27.714536 92.000000 9.591663
27.734968 87.000000 9.327379
27.755400 99.000000 9.949874
27.775832 121.000000 11.000000
27.796264 129.000000 11.357817
27.816696 127.000000 11.269428
27.837128 150.000000 12.247449
27.857560 151.000000 12.288206
27.877992 140.000000 11.832160
27.898424 148.000000 12.165525
27.918856 167.000000 12.922848
27.939288 141.000000 11.874342
27.959720 169.000000 13.000000
27.980152 150.000000 12.247449
28.000584 167.000000 12.922848
28.021016 145.000000 12.041595
28.041448 142.000000 11.916375
28.061880 154.000000 12.409674
28.082312 137.000000 11.704700
28.102744 141.000000 11.874342
28.123176 177.000000 13.304135
28.143608 191.000000 13.820275
28.164040 189.000000 13.747727
28.184472 201.000000 14.177447
28.204904 213.000000 14.594520
28.225336 217.000000 14.730920
28.245768 218.000000 14.764823
28.266200 241.000000 15.524175
28.286632 249.000000 15.779734
28.307064 314.000000 17.720045
28.327496 405.000000 20.124612
28.347928 539.000000 23.216374
28.368360 725.000000 26.925824
28.388792 893.000000 29.883106
28.409224 1042.000000 32.280025
28.429656 1160.000000 34.058773
28.450088 1088.000000 32.984845
28.470520 918.000000 30.298515
28.490952 824.000000 28.705400
28.511384 756.000000 27.495454
28.531816 682.000000 26.115130
28.552248 616.000000 24.819347
28.572680 663.000000 25.748786
28.593112 824.000000 28.705400
28.613543 874.000000 29.563491
28.633975 1077.000000 32.817678
28.654407 1104.000000 33.226495
28.674839 1088.000000 32.984845
28.695271 952.000000 30.854497
28.715703 959.000000 30.967725
28.736135 1020.000000 31.937439
28.756567 1093.000000 33.060551
28.776999 1426.000000 37.762415
28.797431 1879.000000 43.347434
28.817863 2837.000000 53.263496
28.838295 3854.000000 62.080593
28.858727 4643.000000 68.139563
28.879159 4517.000000 67.208630
28.899591 4584.000000 67.705244
28.920023 4730.000000 68.774995
28.940455 5198.000000 72.097157
28.960887 5225.000000 72.284161
28.981319 5634.000000 75.059976
29.001751 5162.000000 71.847060
29.022183 4390.000000 66.257075
29.042615 3485.000000 59.033889
29.063047 2874.000000 53.609701
29.083479 2248.000000 47.413078
29.103911 1487.000000 38.561639
29.124343 964.000000 31.048349
29.144775 613.000000 24.758837
29.165207 470.000000 21.679483
29.185639 377.000000 19.416488
29.206071 305.000000 17.464249
29.226503 266.000000 16.309506
29.246935 231.000000 15.198684
29.267367 236.000000 15.362291
29.287799 255.000000 15.968719
29.308231 247.000000 15.716234
29.328663 196.000000 14.000000
29.349095 164.000000 12.806248
29.369527 146.000000 12.083046
29.389959 151.000000 12.288206
29.410391 137.000000 11.704700
29.430823 116.000000 10.770330
29.451255 110.000000 10.488088
29.471687 84.000000 9.165151
29.492119 85.000000 9.219544
29.512551 87.000000 9.327379
29.532983 97.000000 9.848858
29.553415 88.000000 9.380832
29.573847 114.000000 10.677078
29.594279 85.000000 9.219544
29.614711 85.000000 9.219544
29.635143 93.000000 9.643651
29.655575 90.000000 9.486833
29.676007 70.000000 8.366600
29.696439 69.000000 8.306624
29.716871 64.000000 8.000000
29.737303 100.000000 10.000000
29.757735 97.000000 9.848858
29.778167 101.000000 10.049876
29.798599 76.000000 8.717798
29.819031 75.000000 8.660254
29.839463 85.000000 9.219544
29.859895 82.000000 9.055385
29.880327 81.000000 9.000000
29.900759 89.000000 9.433981
29.921191 80.000000 8.944272
29.941623 78.000000 8.831761
29.962055 80.000000 8.944272
29.982487 86.000000 9.273618
30.002919 80.000000 8.944272
30.023351 78.000000 8.831761
30.043783 78.000000 8.831761
30.064215 72.000000 8.485281
30.084647 75.000000 8.660254
30.105079 80.000000 8.944272
30.125511 73.000000 8.544004
30.145943 76.000000 8.717798
30.166375 85.000000 9.219544
30.186807 52.000000 7.211103
30.207239 74.000000 8.602325
30.227671 93.000000 9.643651
30.248103 83.000000 9.110434
30.268535 73.000000 8.544004
30.288967 99.000000 9.949874
30.309399 88.000000 9.380832
30.329831 81.000000 9.000000
30.350263 99.000000 9.949874
30.370695 98.000000 9.899495
30.391127 113.000000 10.630146
30.411559 112.000000 10.583005
30.431991 126.000000 11.224972
30.452423 159.000000 12.609520
30.472855 203.000000 14.247807
30.493287 267.000000 16.340135
30.513719 526.000000 22.934690
30.534151 805.000000 28.372522
30.554583 1268.000000 35.608988
30.575015 1497.000000 38.691084
30.595447 1343.000000 36.646964
30.615879 1060.000000 32.557641
30.636311 990.000000 31.464265
30.656743 878.000000 29.631065
30.677175 675.000000 25.980762
30.697607 403.000000 20.074860
30.718039 277.000000 16.643317
30.738471 198.000000 14.071247
30.758903 160.000000 12.649111
30.779335 132.000000 11.489125
30.799766 109.000000 10.440307
30.820198 90.000000 9.486833
30.840630 95.000000 9.746794
30.861062 103.000000 10.148892
30.881494 80.000000 8.944272
30.901926 67.000000 8.185353
30.922358 71.000000 8.426150
30.942790 76.000000 8.717798
30.963222 75.000000 8.660254
30.983654 59.000000 7.681146
31.004086 62.000000 7.874008
31.024518 57.000000 7.549834
31.044950 61.000000 7.810250
31.065382 61.000000 7.810250
31.085814 63.000000 7.937254
31.106246 61.000000 7.810250
31.126678 56.000000 7.483315
31.147110 52.000000 7.211103
31.167542 55.000000 7.416198
31.187974 55.000000 7.416198
31.208406 61.000000 7.810250
31.228838 59.000000 7.681146
31.249270 49.000000 7.000000
31.269702 72.000000 8.485281
31.290134 62.000000 7.874008
31.310566 55.000000 7.416198
31.330998 63.000000 7.937254
31.351430 62.000000 7.874008
31.371862 78.000000 8.831761
31.392294 67.000000 8.185353
31.412726 81.000000 9.000000
31.433158 83.000000 9.110434
31.453590 87.000000 9.327379
31.474022 64.000000 8.000000
31.494454 69.000000 8.306624
31.514886 72.000000 8.485281
31.535318 66.000000 8.124038
31.555750 65.000000 8.062258
31.576182 54.000000 7.348469
31.596614 51.000000 7.141428
31.617046 62.000000 7.874008
31.637478 40.000000 6.324555
31.657910 56.000000 7.483315
31.678342 63.000000 7.937254
31.698774 62.000000 7.874008
31.719206 54.000000 7.348469
31.739638 59.000000 7.681146
31.760070 55.000000 7.416198
31.780502 61.000000 7.810250
31.800934 77.000000 8.774964
31.821366 64.000000 8.000000
31.841798 64.000000 8.000000
31.862230 84.000000 9.165151
31.882662 93.000000 9.643651
31.903094 75.000000 8.660254
31.923526 97.000000 9.848858
31.943958 87.000000 9.327379
31.964390 90.000000 9.486833
31.984822 81.000000 9.000000
32.005254 106.000000 10.295630
32.025686 101.000000 10.049876
32.046118 112.000000 10.583005
32.066550 87.000000 9.327379
32.086982 93.000000 9.643651
32.107414 65.000000 8.062258
32.127846 76.000000 8.717798
32.148278 63.000000 7.937254
32.168710 60.000000 7.745967
32.189142 68.000000 8.246211
32.209574 44.000000 6.633250
32.230006 68.000000 8.246211
32.250438 68.000000 8.246211
32.270870 73.000000 8.544004
32.291302 79.000000 8.888194
32.311734 54.000000 7.348469
32.332166 76.000000 8.717798
32.352598 67.000000 8.185353
32.373030 61.000000 7.810250
32.393462 79.000000 8.888194
32.413894 75.000000 8.660254
32.434326 70.000000 8.366600
32.454758 82.000000 9.055385
32.475190 101.000000 10.049876
32.495622 106.000000 10.295630
32.516054 145.000000 12.041595
32.536486 168.000000 12.961481
32.556918 173.000000 13.152946
32.577350 155.000000 12.449900
32.597782 149.000000 12.206556
32.618214 136.000000 11.661904
32.638646 116.000000 10.770330
32.659078 112.000000 10.583005
32.679510 70.000000 8.366600
32.699942 74.000000 8.602325
32.720374 62.000000 7.874008
32.740806 52.000000 7.211103
32.761238 58.000000 7.615773
32.781670 58.000000 7.615773
32.802102 45.000000 6.708204
32.822534 53.000000 7.280110
32.842966 55.000000 7.416198
32.863398 67.000000 8.185353
32.883830 51.000000 7.141428
32.904262 51.000000 7.141428
32.924694 40.000000 6.324555
32.945126 44.000000 6.633250
32.965558 53.000000 7.280110
32.985989 53.000000 7.280110
33.006421 37.000000 6.082763
33.026853 40.000000 6.324555
33.047285 51.000000 7.141428
33.067717 40.000000 6.324555
33.088149 42.000000 6.480741
33.108581 53.000000 7.280110
33.129013 44.000000 6.633250
33.149445 56.000000 7.483315
33.169877 52.000000 7.211103
33.190309 63.000000 7.937254
33.210741 54.000000 7.348469
33.231173 61.000000 7.810250
33.251605 49.000000 7.000000
33.272037 63.000000 7.937254
33.292469 64.000000 8.000000
33.312901 60.000000 7.745967
33.333333 81.000000 9.000000
33.353765 76.000000 8.717798
33.374197 102.000000 10.099505
33.394629 87.000000 9.327379
33.415061 115.000000 10.723805
33.435493 113.000000 10.630146
33.455925 148.000000 12.165525
33.476357 175.000000 13.228757
33.496789 171.000000 13.076697
33.517221 199.000000 14.106736
33.537653 170.000000 13.038405
33.558085 167.000000 12.922848
33.578517 154.000000 12.409674
33.598949 126.000000 11.224972
33.619381 105.000000 10.246951
33.639813 112.000000 10.583005
33.660245 80.000000 8.944272
33.680677 62.000000 7.874008
33.701109 56.000000 7.483315
33.721541 52.000000 7.211103
33.741973 53.000000 7.280110
33.762405 59.000000 7.681146
33.782837 64.000000 8.000000
33.803269 38.000000 6.164414
33.823701 50.000000 7.071068
33.844133 52.000000 7.211103
33.864565 45.000000 6.708204
33.884997 52.000000 7.211103
33.905429 47.000000 6.855655
33.925861 44.000000 6.633250
33.946293 52.000000 7.211103
33.966725 49.000000 7.000000
33.987157 54.000000 7.348469
34.007589 43.000000 6.557439
34.028021 43.000000 6.557439
34.048453 42.000000 6.480741
34.068885 56.000000 7.483315
34.089317 61.000000 7.810250
34.109749 57.000000 7.549834
34.130181 51.000000 7.141428
34.150613 60.000000 7.745967
34.171045 58.000000 7.615773
34.191477 60.000000 7.745967
34.211909 66.000000 8.124038
34.232341 62.000000 7.874008
34.252773 59.000000 7.681146
34.273205 70.000000 8.366600
34.293637 69.000000 8.306624
34.314069 67.000000 8.185353
34.334501 83.000000 9.110434
34.354933 88.000000 9.380832
34.375365 114.000000 10.677078
34.395797 98.000000 9.899495
34.416229 144.000000 12.000000
34.436661 155.000000 12.449900
34.457093 208.000000 14.422205
34.477525 280.000000 16.733201
34.497957 372.000000 19.287302
34.518389 499.000000 22.338308
34.538821 605.000000 24.596748
34.559253 608.000000 24.657656
34.579685 617.000000 24.839485
34.600117 558.000000 23.622024
34.620549 534.000000 23.108440
34.640981 488.000000 22.090722
34.661413 411.000000 20.273135
34.681845 378.000000 19.442222
34.702277 277.000000 16.643317
34.722709 221.000000 14.866069
34.743141 187.000000 13.674794
34.763573 169.000000 13.000000
34.784005 163.000000 12.767145
34.804437 126.000000 11.224972
34.824869 117.000000 10.816654
34.845301 108.000000 10.392305
34.865733 118.000000 10.862780
34.886165 94.000000 9.695360
34.906597 112.000000 10.583005
34.927029 92.000000 9.591663
34.947461 107.000000 10.344080
34.967893 121.000000 11.000000
34.988325 114.000000 10.677078
35.008757 106.000000 10.295630
35.029189 115.000000 10.723805
35.049621 118.000000 10.862780
35.070053 127.000000 11.269428
35.090485 132.000000 11.489125
35.110917 151.000000 12.288206
35.131349 165.000000 12.845233
35.151781 213.000000 14.594520
35.172212 310.000000 17.606817
35.192644 383.000000 19.570386
35.213076 520.000000 22.803509
35.233508 608.000000 24.657656
35.253940 694.000000 26.343880
35.274372 666.000000 25.806976
35.294804 545.000000 23.345235
35.315236 482.000000 21.954498
35.335668 476.000000 21.817424
35.356100 395.000000 19.874607
35.376532 297.000000 17.233688
35.396964 216.000000 14.696938
35.417396 149.000000 12.206556
35.437828 133.000000 11.532563
35.458260 97.000000 9.848858
35.478692 101.000000 10.049876
35.499124 62.000000 7.874008
35.519556 76.000000 8.717798
35.539988 61.000000 7.810250
35.560420 67.000000 8.185353
35.580852 48.000000 6.928203
35.601284 46.000000 6.782330
35.621716 46.000000 6.782330
35.642148 38.000000 6.164414
35.662580 43.000000 6.557439
35.683012 55.000000 7.416198
35.703444 38.000000 6.164414
35.723876 45.000000 6.708204
35.744308 37.000000 6.082763
35.764740 51.000000 7.141428
35.785172 48.000000 6.928203
35.805604 33.000000 5.744563
35.826036 36.000000 6.000000
35.846468 42.000000 6.480741
35.866900 39.000000 6.244998
35.887332 34.000000 5.830952
35.907764 43.000000 6.557439
35.928196 43.000000 6.557439
35.948628 31.000000 5.567764
35.969060 43.000000 6.557439
35.989492 35.000000 5.916080
36.009924 36.000000 6.000000
36.030356 38.000000 6.164414
36.050788 39.000000 6.244998
36.071220 30.000000 5.477226
36.091652 34.000000 5.830952
36.112084 31.000000 5.567764
36.132516 44.000000 6.633250
36.152948 30.000000 5.477226
36.173380 36.000000 6.000000
36.193812 30.000000 5.477226
36.214244 43.000000 6.557439
36.234676 37.000000 6.082763
36.255108 51.000000 7.141428
36.275540 46.000000 6.782330
36.295972 32.000000 5.656854
36.316404 33.000000 5.744563
36.336836 33.000000 5.744563
36.357268 32.000000 5.656854
36.377700 27.000000 5.196152
36.398132 40.000000 6.324555
36.418564 44.000000 6.633250
36.438996 46.000000 6.782330
36.459428 45.000000 6.708204
36.479860 47.000000 6.855655
36.500292 45.000000 6.708204
36.520724 38.000000 6.164414
36.541156 42.000000 6.480741
36.561588 42.000000 6.480741
36.582020 45.000000 6.708204
36.602452 56.000000 7.483315
36.622884 48.000000 6.928203
36.643316 49.000000 7.000000
36.663748 48.000000 6.928203
36.684180 57.000000 7.549834
36.704612 51.000000 7.141428
36.725044 37.000000 6.082763
36.745476 40.000000 6.324555
36.765908 43.000000 6.557439
36.786340 53.000000 7.280110
36.806772 38.000000 6.164414
36.827204 51.000000 7.141428
36.847636 38.000000 6.164414
36.868068 29.000000 5.385165
36.888500 52.000000 7.211103
36.908932 49.000000 7.000000
36.929364 39.000000 6.244998
36.949796 48.000000 6.928203
36.970228 39.000000 6.244998
36.990660 43.000000 6.557439
37.011092 45.000000 6.708204
37.031524 45.000000 6.708204
37.051956 36.000000 6.000000
37.072388 51.000000 7.141428
37.092820 48.000000 6.928203
37.113252 31.000000 5.567764
37.133684 41.000000 6.403124
37.154116 42.000000 6.480741
37.174548 32.000000 5.656854
37.194980 41.000000 6.403124
37.215412 36.000000 6.000000
37.235844 34.000000 5.830952
37.256276 28.000000 5.291503
37.276708 45.000000 6.708204
37.297140 34.000000 5.830952
37.317572 35.000000 5.916080
37.338004 29.000000 5.385165
37.358435 31.000000 5.567764
37.378867 42.000000 6.480741
37.399299 34.000000 5.830952
37.419731 39.000000 6.244998
37.440163 32.000000 5.656854
37.460595 39.000000 6.244998
37.481027 39.000000 6.244998
37.501459 42.000000 6.480741
37.521891 31.000000 5.567764
37.542323 38.000000 6.164414
37.562755 35.000000 5.916080
37.583187 46.000000 6.782330
37.603619 31.000000 5.567764
37.624051 33.000000 5.744563
37.644483 45.000000 6.708204
37.664915 39.000000 6.244998
37.685347 39.000000 6.244998
37.705779 45.000000 6.708204
37.726211 39.000000 6.244998
37.746643 53.000000 7.280110
37.767075 38.000000 6.164414
37.787507 34.000000 5.830952
37.807939 41.000000 6.403124
37.828371 45.000000 6.708204
37.848803 51.000000 7.141428
37.869235 54.000000 7.348469
37.889667 57.000000 7.549834
37.910099 54.000000 7.348469
37.930531 70.000000 8.366600
37.950963 76.000000 8.717798
37.971395 53.000000 7.280110
37.991827 53.000000 7.280110
38.012259 61.000000 7.810250
38.032691 43.000000 6.557439
38.053123 60.000000 7.745967
38.073555 54.000000 7.348469
38.093987 48.000000 6.928203
38.114419 39.000000 6.244998
38.134851 41.000000 6.403124
38.155283 35.000000 5.916080
38.175715 42.000000 6.480741
38.196147 42.000000 6.480741
38.216579 43.000000 6.557439
38.237011 40.000000 6.324555
38.257443 37.000000 6.082763
38.277875 38.000000 6.164414
38.298307 46.000000 6.782330
38.318739 38.000000 6.164414
38.339171 37.000000 6.082763
38.359603 32.000000 5.656854
38.380035 47.000000 6.855655
38.400467 36.000000 6.000000
38.420899 29.000000 5.385165
38.441331 28.000000 5.291503
38.461763 28.000000 5.291503
38.482195 43.000000 6.557439
38.502627 40.000000 6.324555
38.523059 34.000000 5.830952
38.543491 39.000000 6.244998
38.563923 34.000000 5.830952
38.584355 29.000000 5.385165
38.604787 32.000000 5.656854
38.625219 37.000000 6.082763
38.645651 31.000000 5.567764
38.666083 44.000000 6.633250
38.686515 36.000000 6.000000
38.706947 44.000000 6.633250
38.727379 40.000000 6.324555
38.747811 31.000000 5.567764
38.768243 43.000000 6.557439
38.788675 40.000000 6.324555
38.809107 36.000000 6.000000
38.829539 30.000000 5.477226
38.849971 37.000000 6.082763
38.870403 48.000000 6.928203
38.890835 32.000000 5.656854
38.911267 40.000000 6.324555
38.931699 47.000000 6.855655
38.952131 43.000000 6.557439
38.972563 46.000000 6.782330
38.992995 45.000000 6.708204
39.013427 49.000000 7.000000
39.033859 41.000000 6.403124
39.054291 56.000000 7.483315
39.074723 47.000000 6.855655
39.095155 47.000000 6.855655
39.115587 47.000000 6.855655
39.136019 45.000000 6.708204
39.156451 45.000000 6.708204
39.176883 48.000000 6.928203
39.197315 46.000000 6.782330
39.217747 56.000000 7.483315
39.238179 53.000000 7.280110
39.258611 55.000000 7.416198
39.279043 52.000000 7.211103
39.299475 56.000000 7.483315
39.319907 66.000000 8.124038
39.340339 69.000000 8.306624
39.360771 71.000000 8.426150
39.381203 79.000000 8.888194
39.401635 83.000000 9.110434
39.422067 123.000000 11.090537
39.442499 140.000000 11.832160
39.462931 197.000000 14.035669
39.483363 242.000000 15.556349
39.503795 218.000000 14.764823
39.524227 228.000000 15.099669
39.544658 213.000000 14.594520
39.565090 245.000000 15.652476
39.585522 273.000000 16.522712
39.605954 286.000000 16.911535
39.626386 274.000000 16.552945
39.646818 233.000000 15.264338
39.667250 216.000000 14.696938
39.687682 193.000000 13.892444
39.708114 206.000000 14.352700
39.728546 213.000000 14.594520
39.748978 237.000000 15.394804
39.769410 293.000000 17.117243
39.789842 369.000000 19.209373
39.810274 496.000000 22.271057
39.830706 491.000000 22.158520
39.851138 461.000000 21.470911
39.871570 386.000000 19.646883
39.892002 397.000000 19.924859
39.912434 386.000000 19.646883
39.932866 406.000000 20.149442
39.953298 349.000000 18.681542
39.973730 333.000000 18.248288
39.994162 309.000000 17.578396
40.014594 308.000000 17.549929
40.035026 325.000000 18.027756
40.055458 382.000000 19.544820
40.075890 468.000000 21.633308
40.096322 462.000000 21.494185
40.116754 412.000000 20.297783
40.137186 320.000000 17.888544
40.157618 291.000000 17.058722
40.178050 303.000000 17.406895
40.198482 314.000000 17.720045
40.218914 263.000000 16.217275
40.239346 221.000000 14.866069
40.259778 214.000000 14.628739
40.280210 222.000000 14.899664
40.300642 206.000000 14.352700
40.321074 220.000000 14.832397
40.341506 170.000000 13.038405
40.361938 166.000000 12.884099
40.382370 151.000000 12.288206
40.402802 154.000000 12.409674
40.423234 152.000000 12.328828
40.443666 145.000000 12.041595
40.464098 146.000000 12.083046
40.484530 172.000000 13.114877
40.504962 198.000000 14.071247
40.525394 243.000000 15.588457
40.545826 282.000000 16.792856
40.566258 313.000000 17.691806
40.586690 315.000000 17.748239
40.607122 338.000000 18.384776
40.627554 357.000000 18.894444
40.647986 334.000000 18.275667
40.668418 326.000000 18.055470
40.688850 297.000000 17.233688
40.709282 266.000000 16.309506
40.729714 251.000000 15.842980
40.750146 249.000000 15.779734
40.770578 197.000000 14.035669
40.791010 170.000000 13.038405
40.811442 153.000000 12.369317
40.831874 126.000000 11.224972
40.852306 120.000000 10.954451
40.872738 99.000000 9.949874
40.893170 98.000000 9.899495
40.913602 104.000000 10.198039
40.934034 115.000000 10.723805
40.954466 90.000000 9.486833
40.974898 96.000000 9.797959
40.995330 83.000000 9.110434
41.015762 71.000000 8.426150
41.036194 89.000000 9.433981
41.056626 75.000000 8.660254
41.077058 86.000000 9.273618
41.097490 70.000000 8.366600
41.117922 66.000000 8.124038
41.138354 62.000000 7.874008
41.158786 60.000000 7.745967
41.179218 62.000000 7.874008
41.199650 58.000000 7.615773
41.220082 66.000000 8.124038
41.240514 71.000000 8.426150
41.260946 68.000000 8.246211
41.281378 75.000000 8.660254
41.301810 52.000000 7.211103
41.322242 59.000000 7.681146
41.342674 63.000000 7.937254
41.363106 67.000000 8.185353
41.383538 67.000000 8.185353
41.403970 50.000000 7.071068
41.424402 52.000000 7.211103
41.444834 59.000000 7.681146
41.465266 57.000000 7.549834
41.485698 59.000000 7.681146
41.506130 49.000000 7.000000
41.526562 54.000000 7.348469
41.546994 45.000000 6.708204
41.567426 53.000000 7.280110
41.587858 64.000000 8.000000
41.608290 55.000000 7.416198
41.628722 51.000000 7.141428
41.649154 70.000000 8.366600
41.669586 61.000000 7.810250
41.690018 59.000000 7.681146
41.710450 56.000000 7.483315
41.730881 45.000000 6.708204
41.751313 47.000000 6.855655
41.771745 61.000000 7.810250
41.792177 47.000000 6.855655
41.812609 46.000000 6.782330
41.833041 47.000000 6.855655
41.853473 41.000000 6.403124
41.873905 47.000000 6.855655
41.894337 71.000000 8.426150
41.914769 47.000000 6.855655
41.935201 62.000000 7.874008
41.955633 48.000000 6.928203
41.976065 46.000000 6.782330
41.996497 48.000000 6.928203
42.016929 53.000000 7.280110
42.037361 60.000000 7.745967
42.057793 42.000000 6.480741
42.078225 67.000000 8.185353
42.098657 60.000000 7.745967
42.119089 50.000000 7.071068
42.139521 55.000000 7.416198
42.159953 59.000000 7.681146
42.180385 55.000000 7.416198
42.200817 63.000000 7.937254
42.221249 52.000000 7.211103
42.241681 63.000000 7.937254
42.262113 74.000000 8.602325
42.282545 87.000000 9.327379
42.302977 106.000000 10.295630
42.323409 140.000000 11.832160
42.343841 174.000000 13.190906
42.364273 180.000000 13.416408
42.384705 203.000000 14.247807
42.405137 200.000000 14.142136
42.425569 225.000000 15.000000
42.446001 223.000000 14.933185
42.466433 324.000000 18.000000
42.486865 454.000000 21.307276
42.507297 449.000000 21.189620
42.527729 430.000000 20.736441
42.548161 347.000000 18.627936
42.568593 326.000000 18.055470
42.589025 260.000000 16.124515
42.609457 261.000000 16.155494
42.629889 262.000000 16.186414
42.650321 202.000000 14.212670
42.670753 166.000000 12.884099
42.691185 118.000000 10.862780
42.711617 106.000000 10.295630
42.732049 81.000000 9.000000
42.752481 55.000000 7.416198
42.772913 72.000000 8.485281
42.793345 79.000000 8.888194
42.813777 39.000000 6.244998
42.834209 61.000000 7.810250
42.854641 50.000000 7.071068
42.875073 46.000000 6.782330
42.895505 43.000000 6.557439
42.915937 54.000000 7.348469
42.936369 41.000000 6.403124
42.956801 40.000000 6.324555
42.977233 39.000000 6.244998
42.997665 36.000000 6.000000
43.018097 61.000000 7.810250
43.038529 48.000000 6.928203
43.058961 46.000000 6.782330
43.079393 39.000000 6.244998
43.099825 34.000000 5.830952
43.120257 34.000000 5.830952
43.140689 52.000000 7.211103
43.161121 37.000000 6.082763
43.181553 44.000000 6.633250
43.201985 43.000000 6.557439
43.222417 45.000000 6.708204
43.242849 32.000000 5.656854
43.263281 36.000000 6.000000
43.283713 34.000000 5.830952
43.304145 50.000000 7.071068
43.324577 36.000000 6.000000
43.345009 39.000000 6.244998
43.365441 39.000000 6.244998
43.385873 50.000000 7.071068
43.406305 44.000000 6.633250
43.426737 31.000000 5.567764
43.447169 32.000000 5.656854
43.467601 42.000000 6.480741
43.488033 39.000000 6.244998
43.508465 35.000000 5.916080
43.528897 37.000000 6.082763
43.549329 32.000000 5.656854
43.569761 33.000000 5.744563
43.590193 38.000000 6.164414
43.610625 34.000000 5.830952
43.631057 31.000000 5.567764
43.651489 29.000000 5.385165
43.671921 47.000000 6.855655
43.692353 44.000000 6.633250
43.712785 33.000000 5.744563
43.733217 44.000000 6.633250
43.753649 52.000000 7.211103
43.774081 33.000000 5.744563
43.794513 33.000000 5.744563
43.814945 35.000000 5.916080
43.835377 37.000000 6.082763
43.855809 36.000000 6.000000
43.876241 34.000000 5.830952
43.896673 38.000000 6.164414
43.917104 29.000000 5.385165
43.937536 45.000000 6.708204
43.957968 30.000000 5.477226
43.978400 44.000000 6.633250
43.998832 35.000000 5.916080
44.019264 29.000000 5.385165
44.039696 37.000000 6.082763
44.060128 36.000000 6.000000
44.080560 25.000000 5.000000
44.100992 37.000000 6.082763
44.121424 43.000000 6.557439
44.141856 31.000000 5.567764
44.162288 37.000000 6.082763
44.182720 37.000000 6.082763
44.203152 46.000000 6.782330
44.223584 38.000000 6.164414
44.244016 41.000000 6.403124
44.264448 34.000000 5.830952
44.284880 36.000000 6.000000
44.305312 34.000000 5.830952
44.325744 46.000000 6.782330
44.346176 34.000000 5.830952
44.366608 41.000000 6.403124
44.387040 31.000000 5.567764
44.407472 41.000000 6.403124
44.427904 33.000000 5.744563
44.448336 42.000000 6.480741
44.468768 41.000000 6.403124
44.489200 43.000000 6.557439
44.509632 36.000000 6.000000
44.530064 47.000000 6.855655
44.550496 34.000000 5.830952
44.570928 44.000000 6.633250
44.591360 34.000000 5.830952
44.611792 37.000000 6.082763
44.632224 38.000000 6.164414
44.652656 32.000000 5.656854
44.673088 35.000000 5.916080
44.693520 40.000000 6.324555
44.713952 43.000000 6.557439
44.734384 26.000000 5.099020
44.754816 30.000000 5.477226
44.775248 27.000000 5.196152
44.795680 27.000000 5.196152
44.816112 49.000000 7.000000
44.836544 49.000000 7.000000
44.856976 31.000000 5.567764
44.877408 40.000000 6.324555
44.897840 28.000000 5.291503
44.918272 38.000000 6.164414
44.938704 45.000000 6.708204
44.959136 35.000000 5.916080
44.979568 45.000000 6.708204
45.000000 35.000000 5.916080
45.020432 35.000000 5.916080
45.040864 33.000000 5.744563
45.061296 35.000000 5.916080
45.081728 35.000000 5.916080
45.102160 41.000000 6.403124
45.122592 40.000000 6.324555
45.143024 43.000000 6.557439
45.163456 40.000000 6.324555
45.183888 48.000000 6.928203
45.204320 43.000000 6.557439
45.224752 48.000000 6.928203
45.245184 53.000000 7.280110
45.265616 56.000000 7.483315
45.286048 49.000000 7.000000
45.306480 50.000000 7.071068
45.326912 63.000000 7.937254
45.347344 62.000000 7.874008
45.367776 75.000000 8.660254
45.388208 70.000000 8.366600
45.408640 95.000000 9.746794
45.429072 130.000000 11.401754
45.449504 123.000000 11.090537
45.469936 178.000000 13.341664
45.490368 196.000000 14.000000
45.510800 181.000000 13.453624
45.531232 169.000000 13.000000
45.551664 163.000000 12.767145
45.572096 192.000000 13.856406
45.592528 185.000000 13.601471
45.612960 159.000000 12.609520
45.633392 181.000000 13.453624
45.653824 178.000000 13.341664
45.674256 183.000000 13.527749
45.694688 170.000000 13.038405
45.715120 144.000000 12.000000
45.735552 143.000000 11.958261
45.755984 168.000000 12.961481
45.776416 136.000000 11.661904
45.796848 177.000000 13.304135
45.817280 165.000000 12.845233
45.837712 179.000000 13.379088
45.858144 182.000000 13.490738
45.878576 187.000000 13.674794
45.899008 248.000000 15.748016
45.919440 261.000000 16.155494
45.939872 243.000000 15.588457
45.960304 212.000000 14.560220
45.980736 188.000000 13.711309
46.001168 184.000000 13.564660
46.021600 265.000000 16.278821
46.042032 255.000000 15.968719
46.062464 308.000000 17.549929
46.082896 313.000000 17.691806
46.103327 353.000000 18.788294
46.123759 305.000000 17.464249
46.144191 251.000000 15.842980
46.164623 187.000000 13.674794
46.185055 205.000000 14.317821
46.205487 200.000000 14.142136
46.225919 208.000000 14.422205
46.246351 164.000000 12.806248
46.266783 134.000000 11.575837
46.287215 120.000000 10.954451
46.307647 95.000000 9.746794
46.328079 75.000000 8.660254
46.348511 82.000000 9.055385
46.368943 78.000000 8.831761
46.389375 94.000000 9.695360
46.409807 73.000000 8.544004
46.430239 63.000000 7.937254
46.450671 76.000000 8.717798
46.471103 76.000000 8.717798
46.491535 76.000000 8.717798
46.511967 87.000000 9.327379
46.532399 99.000000 9.949874
46.552831 113.000000 10.630146
46.573263 108.000000 10.392305
46.593695 139.000000 11.789826
46.614127 129.000000 11.357817
46.634559 177.000000 13.304135
46.654991 185.000000 13.601471
46.675423 233.000000 15.264338
46.695855 300.000000 17.320508
46.716287 418.000000 20.445048
46.736719 481.000000 21.931712
46.757151 555.000000 23.558438
46.777583 573.000000 23.937418
46.798015 649.000000 25.475478
46.818447 542.000000 23.280893
46.838879 476.000000 21.817424
46.859311 485.000000 22.022716
46.879743 470.000000 21.679483
46.900175 463.000000 21.517435
46.920607 418.000000 20.445048
46.941039 319.000000 17.860571
46.961471 283.000000 16.822604
46.981903 238.000000 15.427249
47.002335 214.000000 14.628739
47.022767 194.000000 13.928388
47.043199 195.000000 13.964240
47.063631 178.000000 13.341664
47.084063 183.000000 13.527749
47.104495 161.000000 12.688578
47.124927 145.000000 12.041595
47.145359 137.000000 11.704700
47.165791 155.000000 12.449900
47.186223 162.000000 12.727922
47.206655 178.000000 13.341664
47.227087 258.000000 16.062378
47.247519 328.000000 18.110770
47.267951 397.000000 19.924859
47.288383 532.000000 23.065125
47.308815 673.000000 25.942244
47.329247 706.000000 26.570661
47.349679 634.000000 25.179357
47.370111 513.000000 22.649503
47.390543 413.000000 20.322401
47.410975 408.000000 20.199010
47.431407 418.000000 20.445048
47.451839 380.000000 19.493589
47.472271 347.000000 18.627936
47.492703 267.000000 16.340135
47.513135 245.000000 15.652476
47.533567 177.000000 13.304135
47.553999 129.000000 11.357817
47.574431 115.000000 10.723805
47.594863 89.000000 9.433981
47.615295 85.000000 9.219544
47.635727 73.000000 8.544004
47.656159 69.000000 8.306624
47.676591 59.000000 7.681146
47.697023 71.000000 8.426150
47.717455 49.000000 7.000000
47.737887 65.000000 8.062258
47.758319 55.000000 7.416198
47.778751 55.000000 7.416198
47.799183 47.000000 6.855655
47.819615 47.000000 6.855655
47.840047 48.000000 6.928203
47.860479 50.000000 7.071068
47.880911 48.000000 6.928203
47.901343 54.000000 7.348469
47.921775 55.000000 7.416198
47.942207 55.000000 7.416198
47.962639 58.000000 7.615773
47.983071 48.000000 6.928203
48.003503 53.000000 7.280110
48.023935 56.000000 7.483315
48.044367 58.000000 7.615773
48.064799 54.000000 7.348469
48.085231 51.000000 7.141428
48.105663 50.000000 7.071068
48.126095 47.000000 6.855655
48.146527 51.000000 7.141428
48.166959 49.000000 7.000000
48.187391 63.000000 7.937254
48.207823 48.000000 6.928203
48.228255 49.000000 7.000000
48.248687 46.000000 6.782330
48.269119 59.000000 7.681146
48.289550 63.000000 7.937254
48.309982 65.000000 8.062258
48.330414 68.000000 8.246211
48.350846 66.000000 8.124038
48.371278 66.000000 8.124038
48.391710 53.000000 7.280110
48.412142 55.000000 7.416198
48.432574 70.000000 8.366600
48.453006 49.000000 7.000000
48.473438 60.000000 7.745967
48.493870 56.000000 7.483315
48.514302 54.000000 7.348469
48.534734 56.000000 7.483315
48.555166 53.000000 7.280110
48.575598 52.000000 7.211103
48.596030 46.000000 6.782330
48.616462 45.000000 6.708204
48.636894 64.000000 8.000000
48.657326 43.000000 6.557439
48.677758 46.000000 6.782330
48.698190 59.000000 7.681146
48.718622 51.000000 7.141428
48.739054 52.000000 7.211103
48.759486 44.000000 6.633250
48.779918 38.000000 6.164414
48.800350 41.000000 6.403124
48.820782 47.000000 6.855655
48.841214 38.000000 6.164414
48.861646 48.000000 6.928203
48.882078 31.000000 5.567764
48.902510 33.000000 5.744563
48.922942 41.000000 6.403124
48.943374 47.000000 6.855655
48.963806 47.000000 6.855655
48.984238 41.000000 6.403124
49.004670 51.000000 7.141428
49.025102 38.000000 6.164414
49.045534 49.000000 7.000000
49.065966 48.000000 6.928203
49.086398 40.000000 6.324555
49.106830 31.000000 5.567764
49.127262 37.000000 6.082763
49.147694 37.000000 6.082763
49.168126 46.000000 6.782330
49.188558 35.000000 5.916080
49.208990 47.000000 6.855655
49.229422 48.000000 6.928203
49.249854 49.000000 7.000000
49.270286 34.000000 5.830952
49.290718 44.000000 6.633250
49.311150 40.000000 6.324555
49.331582 43.000000 6.557439
49.352014 32.000000 5.656854
49.372446 43.000000 6.557439
49.392878 46.000000 6.782330
49.413310 56.000000 7.483315
49.433742 53.000000 7.280110
49.454174 45.000000 6.708204
49.474606 47.000000 6.855655
49.495038 51.000000 7.141428
49.515470 52.000000 7.211103
49.535902 45.000000 6.708204
49.556334 44.000000 6.633250
49.576766 34.000000 5.830952
49.597198 60.000000 7.745967
49.617630 53.000000 7.280110
49.638062 58.000000 7.615773
49.658494 49.000000 7.000000
49.678926 65.000000 8.062258
49.699358 76.000000 8.717798
49.719790 70.000000 8.366600
49.740222 60.000000 7.745967
49.760654 78.000000 8.831761
49.781086 92.000000 9.591663
49.801518 67.000000 8.185353
49.821950 67.000000 8.185353
49.842382 63.000000 7.937254
49.862814 79.000000 8.888194
49.883246 98.000000 9.899495
49.903678 119.000000 10.908712
49.924110 140.000000 11.832160
49.944542 163.000000 12.767145
49.964974 248.000000 15.748016
49.985406 267.000000 16.340135
50.005838 289.000000 17.000000
50.026270 247.000000 15.716234
50.046702 229.000000 15.132746
50.067134 234.000000 15.297059
50.087566 216.000000 14.696938
50.107998 237.000000 15.394804
50.128430 237.000000 15.394804
50.148862 204.000000 14.282857
50.169294 216.000000 14.696938
50.189726 215.000000 14.662878
50.210158 232.000000 15.231546
50.230590 210.000000 14.491377
50.251022 222.000000 14.899664
50.271454 257.000000 16.031220
50.291886 308.000000 17.549929
50.312318 317.000000 17.804494
50.332750 428.000000 20.688161
50.353182 399.000000 19.974984
50.373614 347.000000 18.627936
50.394046 284.000000 16.852300
50.414478 245.000000 15.652476
50.434910 239.000000 15.459625
50.455342 233.000000 15.264338
50.475773 234.000000 15.297059
50.496205 216.000000 14.696938
50.516637 192.000000 13.856406
50.537069 146.000000 12.083046
50.557501 112.000000 10.583005
50.577933 90.000000 9.486833
50.598365 84.000000 9.165151
50.618797 71.000000 8.426150
50.639229 62.000000 7.874008
50.659661 64.000000 8.000000
50.680093 59.000000 7.681146
50.700525 64.000000 8.000000
50.720957 61.000000 7.810250
50.741389 60.000000 7.745967
50.761821 54.000000 7.348469
50.782253 46.000000 6.782330
50.802685 43.000000 6.557439
50.823117 38.000000 6.164414
50.843549 33.000000 5.744563
50.863981 50.000000 7.071068
50.884413 50.000000 7.071068
50.904845 50.000000 7.071068
50.925277 35.000000 5.916080
50.945709 45.000000 6.708204
50.966141 51.000000 7.141428
50.986573 52.000000 7.211103
51.007005 54.000000 7.348469
51.027437 43.000000 6.557439
51.047869 48.000000 6.928203
51.068301 34.000000 5.830952
51.088733 55.000000 7.416198
51.109165 39.000000 6.244998
51.129597 44.000000 6.633250
51.150029 33.000000 5.744563
51.170461 46.000000 6.782330
51.190893 32.000000 5.656854
51.211325 53.000000 7.280110
51.231757 41.000000 6.403124
51.252189 53.000000 7.280110
51.272621 42.000000 6.480741
51.293053 31.000000 5.567764
51.313485 42.000000 6.480741
51.333917 26.000000 5.099020
51.354349 36.000000 6.000000
51.374781 25.000000 5.000000
51.395213 40.000000 6.324555
51.415645 38.000000 6.164414
51.436077 46.000000 6.782330
51.456509 50.000000 7.071068
51.476941 46.000000 6.782330
51.497373 42.000000 6.480741
51.517805 59.000000 7.681146
51.538237 38.000000 6.164414
51.558669 39.000000 6.244998
51.579101 48.000000 6.928203
51.599533 48.000000 6.928203
51.619965 49.000000 7.000000
51.640397 38.000000 6.164414
51.660829 54.000000 7.348469
51.681261 62.000000 7.874008
51.701693 41.000000 6.403124
51.722125 56.000000 7.483315
51.742557 51.000000 7.141428
51.762989 46.000000 6.782330
51.783421 46.000000 6.782330
51.803853 46.000000 6.782330
51.824285 38.000000 6.164414
51.844717 46.000000 6.782330
51.865149 42.000000 6.480741
51.885581 39.000000 6.244998
51.906013 56.000000 7.483315
51.926445 43.000000 6.557439
51.946877 52.000000 7.211103
51.967309 41.000000 6.403124
51.987741 47.000000 6.855655
52.008173 44.000000 6.633250
52.028605 54.000000 7.348469
52.049037 41.000000 6.403124
52.069469 46.000000 6.782330
52.089901 49.000000 7.000000
52.110333 48.000000 6.928203
52.130765 48.000000 6.928203
52.151197 52.000000 7.211103
52.171629 45.000000 6.708204
52.192061 42.000000 6.480741
52.212493 48.000000 6.928203
52.232925 63.000000 7.937254
52.253357 41.000000 6.403124
52.273789 37.000000 6.082763
52.294221 45.000000 6.708204
52.314653 46.000000 6.782330
52.335085 36.000000 6.000000
52.355517 44.000000 6.633250
52.375949 63.000000 7.937254
52.396381 49.000000 7.000000
52.416813 42.000000 6.480741
52.437245 43.000000 6.557439
52.457677 57.000000 7.549834
52.478109 42.000000 6.480741
52.498541 54.000000 7.348469
52.518973 46.000000 6.782330
52.539405 42.000000 6.480741
52.559837 47.000000 6.855655
52.580269 53.000000 7.280110
52.600701 47.000000 6.855655
52.621133 43.000000 6.557439
52.641565 54.000000 7.348469
52.661996 39.000000 6.244998
52.682428 40.000000 6.324555
52.702860 45.000000 6.708204
52.723292 56.000000 7.483315
52.743724 42.000000 6.480741
52.764156 46.000000 6.782330
52.784588 40.000000 6.324555
52.805020 63.000000 7.937254
52.825452 46.000000 6.782330
52.845884 62.000000 7.874008
52.866316 68.000000 8.246211
52.886748 49.000000 7.000000
52.907180 62.000000 7.874008
52.927612 62.000000 7.874008
52.948044 69.000000 8.306624
52.968476 67.000000 8.185353
52.988908 69.000000 8.306624
53.009340 72.000000 8.485281
53.029772 78.000000 8.831761
53.050204 85.000000 9.219544
53.070636 93.000000 9.643651
53.091068 84.000000 9.165151
53.111500 103.000000 10.148892
53.131932 112.000000 10.583005
53.152364 129.000000 11.357817
53.172796 174.000000 13.190906
53.193228 251.000000 15.842980
53.213660 291.000000 17.058722
53.234092 402.000000 20.049938
53.254524 491.000000 22.158520
53.274956 533.000000 23.086793
53.295388 557.000000 23.600847
53.315820 637.000000 25.238859
53.336252 607.000000 24.637370
53.356684 573.000000 23.937418
53.377116 501.000000 22.383029
53.397548 455.000000 21.330729
53.417980 420.000000 20.493902
53.438412 401.000000 20.024984
53.458844 386.000000 19.646883
53.479276 341.000000 18.466185
53.499708 307.000000 17.521415
53.520140 271.000000 16.462078
53.540572 226.000000 15.033296
53.561004 169.000000 13.000000
53.581436 173.000000 13.152946
53.601868 132.000000 11.489125
53.622300 138.000000 11.747340
53.642732 129.000000 11.357817
53.663164 96.000000 9.797959
53.683596 86.000000 9.273618
53.704028 96.000000 9.797959
53.724460 81.000000 9.000000
53.744892 72.000000 8.485281
53.765324 59.000000 7.681146
53.785756 69.000000 8.306624
53.806188 62.000000 7.874008
53.826620 71.000000 8.426150
53.847052 62.000000 7.874008
53.867484 53.000000 7.280110
53.887916 59.000000 7.681146
53.908348 52.000000 7.211103
53.928780 63.000000 7.937254
53.949212 60.000000 7.745967
53.969644 46.000000 6.782330
53.990076 61.000000 7.810250
54.010508 63.000000 7.937254
54.030940 48.000000 6.928203
54.051372 66.000000 8.124038
54.071804 66.000000 8.124038
54.092236 68.000000 8.246211
54.112668 66.000000 8.124038
54.133100 73.000000 8.544004
54.153532 76.000000 8.717798
54.173964 63.000000 7.937254
54.194396 56.000000 7.483315
54.214828 73.000000 8.544004
54.235260 48.000000 6.928203
54.255692 85.000000 9.219544
54.276124 56.000000 7.483315
54.296556 66.000000 8.124038
54.316988 74.000000 8.602325
54.337420 59.000000 7.681146
54.357852 58.000000 7.615773
54.378284 56.000000 7.483315
54.398716 59.000000 7.681146
54.419148 56.000000 7.483315
54.439580 65.000000 8.062258
54.460012 69.000000 8.306624
54.480444 71.000000 8.426150
54.500876 69.000000 8.306624
54.521308 89.000000 9.433981
54.541740 73.000000 8.544004
54.562172 98.000000 9.899495
54.582604 94.000000 9.695360
54.603036 101.000000 10.049876
54.623468 123.000000 11.090537
54.643900 120.000000 10.954451
54.664332 84.000000 9.165151
54.684764 76.000000 8.717798
54.705196 81.000000 9.000000
54.725628 97.000000 9.848858
54.746060 84.000000 9.165151
54.766492 90.000000 9.486833
54.786924 71.000000 8.426150
54.807356 78.000000 8.831761
54.827788 74.000000 8.602325
54.848219 76.000000 8.717798
54.868651 55.000000 7.416198
54.889083 60.000000 7.745967
54.909515 62.000000 7.874008
54.929947 46.000000 6.782330
54.950379 67.000000 8.185353
54.970811 60.000000 7.745967
54.991243 51.000000 7.141428
55.011675 50.000000 7.071068
55.032107 67.000000 8.185353
55.052539 42.000000 6.480741
55.072971 58.000000 7.615773
55.093403 49.000000 7.000000
55.113835 57.000000 7.549834
55.134267 66.000000 8.124038
55.154699 74.000000 8.602325
55.175131 60.000000 7.745967
55.195563 54.000000 7.348469
55.215995 58.000000 7.615773
55.236427 49.000000 7.000000
55.256859 54.000000 7.348469
55.277291 62.000000 7.874008
55.297723 66.000000 8.124038
55.318155 50.000000 7.071068
55.338587 43.000000 6.557439
55.359019 49.000000 7.000000
55.379451 50.000000 7.071068
55.399883 43.000000 6.557439
55.420315 37.000000 6.082763
55.440747 60.000000 7.745967
55.461179 45.000000 6.708204
55.481611 51.000000 7.141428
55.502043 35.000000 5.916080
55.522475 41.000000 6.403124
55.542907 42.000000 6.480741
55.563339 38.000000 6.164414
55.583771 48.000000 6.928203
55.604203 46.000000 6.782330
55.624635 44.000000 6.633250
55.645067 43.000000 6.557439
55.665499 48.000000 6.928203
55.685931 62.000000 7.874008
55.706363 68.000000 8.246211
55.726795 54.000000 7.348469
55.747227 80.000000 8.944272
55.767659 101.000000 10.049876
55.788091 92.000000 9.591663
55.808523 96.000000 9.797959
55.828955 92.000000 9.591663
55.849387 103.000000 10.148892
55.869819 72.000000 8.485281
55.890251 128.000000 11.313708
55.910683 116.000000 10.770330
55.931115 120.000000 10.954451
55.951547 126.000000 11.224972
55.971979 96.000000 9.797959
55.992411 108.000000 10.392305
56.012843 85.000000 9.219544
56.033275 94.000000 9.695360
56.053707 99.000000 9.949874
56.074139 89.000000 9.433981
56.094571 85.000000 9.219544
56.115003 95.000000 9.746794
56.135435 73.000000 8.544004
56.155867 78.000000 8.831761
56.176299 85.000000 9.219544
56.196731 75.000000 8.660254
56.217163 74.000000 8.602325
56.237595 76.000000 8.717798
56.258027 74.000000 8.602325
56.278459 74.000000 8.602325
56.298891 74.000000 8.602325
56.319323 63.000000 7.937254
56.339755 64.000000 8.000000
56.360187 50.000000 7.071068
56.380619 69.000000 8.306624
56.401051 61.000000 7.810250
56.421483 53.000000 7.280110
56.441915 43.000000 6.557439
56.462347 51.000000 7.141428
56.482779 56.000000 7.483315
56.503211 37.000000 6.082763
56.523643 46.000000 6.782330
56.544075 33.000000 5.744563
56.564507 42.000000 6.480741
56.584939 41.000000 6.403124
56.605371 40.000000 6.324555
56.625803 33.000000 5.744563
56.646235 33.000000 5.744563
56.666667 34.000000 5.830952
56.687099 35.000000 5.916080
56.707531 33.000000 5.744563
56.727963 51.000000 7.141428
56.748395 28.000000 5.291503
56.768827 36.000000 6.000000
56.789259 36.000000 6.000000
56.809691 42.000000 6.480741
56.830123 35.000000 5.916080
56.850555 38.000000 6.164414
56.870987 41.000000 6.403124
56.891419 47.000000 6.855655
56.911851 36.000000 6.000000
56.932283 34.000000 5.830952
56.952715 45.000000 6.708204
56.973147 43.000000 6.557439
56.993579 33.000000 5.744563
57.014011 41.000000 6.403124
57.034442 33.000000 5.744563
57.054874 38.000000 6.164414
57.075306 36.000000 6.000000
57.095738 42.000000 6.480741
57.116170 45.000000 6.708204
57.136602 32.000000 5.656854
57.157034 40.000000 6.324555
57.177466 33.000000 5.744563
57.197898 38.000000 6.164414
57.218330 49.000000 7.000000
57.238762 55.000000 7.416198
57.259194 47.000000 6.855655
57.279626 38.000000 6.164414
57.300058 46.000000 6.782330
57.320490 40.000000 6.324555
57.340922 51.000000 7.141428
57.361354 36.000000 6.000000
57.381786 45.000000 6.708204
57.402218 52.000000 7.211103
57.422650 44.000000 6.633250
57.443082 31.000000 5.567764
57.463514 45.000000 6.708204
57.483946 39.000000 6.244998
57.504378 38.000000 6.164414
57.524810 41.000000 6.403124
57.545242 48.000000 6.928203
57.565674 51.000000 7.141428
57.586106 41.000000 6.403124
57.606538 55.000000 7.416198
57.626970 45.000000 6.708204
57.647402 48.000000 6.928203
57.667834 44.000000 6.633250
57.688266 56.000000 7.483315
57.708698 59.000000 7.681146
57.729130 53.000000 7.280110
57.749562 58.000000 7.615773
57.769994 44.000000 6.633250
57.790426 51.000000 7.141428
57.810858 56.000000 7.483315
57.831290 68.000000 8.246211
57.851722 77.000000 8.774964
57.872154 88.000000 9.380832
57.892586 128.000000 11.313708
57.913018 130.000000 11.401754
57.933450 135.000000 11.618950
57.953882 155.000000 12.449900
57.974314 145.000000 12.041595
57.994746 120.000000 10.954451
58.015178 137.000000 11.704700
58.035610 123.000000 11.090537
58.056042 145.000000 12.041595
58.076474 133.000000 11.532563
58.096906 145.000000 12.041595
58.117338 133.000000 11.532563
58.137770 115.000000 10.723805
58.158202 145.000000 12.041595
58.178634 131.000000 11.445523
58.199066 124.000000 11.135529
58.219498 153.000000 12.369317
58.239930 184.000000 13.564660
58.260362 244.000000 15.620499
58.280794 273.000000 16.522712
58.301226 305.000000 17.464249
58.321658 323.000000 17.972201
58.342090 332.000000 18.220867
58.362522 337.000000 18.357560
58.382954 315.000000 17.748239
58.403386 284.000000 16.852300
58.423818 275.000000 16.583124
58.444250 260.000000 16.124515
58.464682 313.000000 17.691806
58.485114 292.000000 17.088007
58.505546 307.000000 17.521415
58.525978 337.000000 18.357560
58.546410 307.000000 17.521415
58.566842 335.000000 18.303005
58.587274 331.000000 18.193405
58.607706 283.000000 16.822604
58.628138 284.000000 16.852300
58.648570 257.000000 16.031220
58.669002 237.000000 15.394804
58.689434 247.000000 15.716234
58.709866 193.000000 13.892444
58.730298 232.000000 15.231546
58.750730 215.000000 14.662878
58.771162 199.000000 14.106736
58.791594 179.000000 13.379088
58.812026 152.000000 12.328828
58.832458 145.000000 12.041595
58.852890 142.000000 11.916375
58.873322 122.000000 11.045361
58.893754 125.000000 11.180340
58.914186 101.000000 10.049876
58.934618 97.000000 9.848858
58.955050 113.000000 10.630146
58.975482 121.000000 11.000000
58.995914 104.000000 10.198039
59.016346 101.000000 10.049876
59.036778 96.000000 9.797959
59.057210 102.000000 10.099505
59.077642 78.000000 8.831761
59.098074 91.000000 9.539392
59.118506 104.000000 10.198039
59.138938 113.000000 10.630146
59.159370 133.000000 11.532563
59.179802 126.000000 11.224972
59.200234 181.000000 13.453624
59.220665 188.000000 13.711309
59.241097 247.000000 15.716234
59.261529 259.000000 16.093477
59.281961 334.000000 18.275667
59.302393 303.000000 17.406895
59.322825 264.000000 16.248077
59.343257 255.000000 15.968719
59.363689 233.000000 15.264338
59.384121 233.000000 15.264338
59.404553 252.000000 15.874508
59.424985 262.000000 16.186414
59.445417 340.000000 18.439089
59.465849 339.000000 18.411953
59.486281 379.000000 19.467922
59.506713 367.000000 19.157244
59.527145 373.000000 19.313208
59.547577 303.000000 17.406895
59.568009 292.000000 17.088007
59.588441 251.000000 15.842980
59.608873 259.000000 16.093477
59.629305 252.000000 15.874508
59.649737 277.000000 16.643317
59.670169 316.000000 17.776389
59.690601 334.000000 18.275667
59.711033 352.000000 18.761663
59.731465 329.000000 18.138357
59.751897 286.000000 16.911535
59.772329 274.000000 16.552945
59.792761 232.000000 15.231546
59.813193 233.000000 15.264338
59.833625 189.000000 13.747727
59.854057 208.000000 14.422205
59.874489 205.000000 14.317821
59.894921 198.000000 14.071247
59.915353 228.000000 15.099669
59.935785 201.000000 14.177447
59.956217 189.000000 13.747727
59.976649 209.000000 14.456832
59.997081 243.000000 15.588457
60.017513 209.000000 14.456832
60.037945 271.000000 16.462078
60.058377 230.000000 15.165751
60.078809 208.000000 14.422205
60.099241 188.000000 13.711309
60.119673 141.000000 11.874342
60.140105 148.000000 12.165525
60.160537 160.000000 12.649111
60.180969 146.000000 12.083046
60.201401 160.000000 12.649111
60.221833 116.000000 10.770330
60.242265 101.000000 10.049876
60.262697 85.000000 9.219544
60.283129 100.000000 10.000000
60.303561 77.000000 8.774964
60.323993 51.000000 7.141428
60.344425 66.000000 8.124038
60.364857 53.000000 7.280110
60.385289 43.000000 6.557439
60.405721 47.000000 6.855655
60.426153 51.000000 7.141428
60.446585 43.000000 6.557439
60.467017 60.000000 7.745967
60.487449 35.000000 5.916080
60.507881 37.000000 6.082763
60.528313 35.000000 5.916080
60.548745 50.000000 7.071068
60.569177 27.000000 5.196152
60.589609 39.000000 6.244998
60.610041 45.000000 6.708204
60.630473 44.000000 6.633250
60.650905 51.000000 7.141428
60.671337 50.000000 7.071068
60.691769 39.000000 6.244998
60.712201 48.000000 6.928203
60.732633 39.000000 6.244998
60.753065 44.000000 6.633250
60.773497 37.000000 6.082763
60.793929 42.000000 6.480741
60.814361 36.000000 6.000000
60.834793 39.000000 6.244998
60.855225 47.000000 6.855655
60.875657 42.000000 6.480741
60.896089 42.000000 6.480741
60.916521 36.000000 6.000000
60.936953 31.000000 5.567764
60.957385 32.000000 5.656854
60.977817 23.000000 4.795832
60.998249 41.000000 6.403124
61.018681 30.000000 5.477226
61.039113 44.000000 6.633250
61.059545 29.000000 5.385165
61.079977 38.000000 6.164414
61.100409 36.000000 6.000000
61.120841 25.000000 5.000000
61.141273 33.000000 5.744563
61.161705 31.000000 5.567764
61.182137 25.000000 5.000000
61.202569 43.000000 6.557439
61.223001 30.000000 5.477226
61.243433 34.000000 5.830952
61.263865 36.000000 6.000000
61.284297 34.000000 5.830952
61.304729 23.000000 4.795832
61.325161 25.000000 5.000000
61.345593 31.000000 5.567764
61.366025 38.000000 6.164414
61.386457 35.000000 5.916080
61.406888 31.000000 5.567764
61.427320 27.000000 5.196152
61.447752 35.000000 5.916080
61.468184 25.000000 5.000000
61.488616 21.000000 4.582576
61.509048 28.000000 5.291503
61.529480 25.000000 5.000000
61.549912 28.000000 5.291503
61.570344 36.000000 6.000000
61.590776 15.000000 3.872983
61.611208 31.000000 5.567764
61.631640 29.000000 5.385165
61.652072 30.000000 5.477226
61.672504 29.000000 5.385165
61.692936 28.000000 5.291503
61.713368 37.000000 6.082763
61.733800 28.000000 5.291503
61.754232 32.000000 5.656854
61.774664 20.000000 4.472136
61.795096 28.000000 5.291503
61.815528 36.000000 6.000000
61.835960 30.000000 5.477226
61.856392 22.000000 4.690416
61.876824 25.000000 5.000000
61.897256 24.000000 4.898979
61.917688 22.000000 4.690416
61.938120 24.000000 4.898979
61.958552 23.000000 4.795832
61.978984 29.000000 5.385165
61.999416 24.000000 4.898979
62.019848 30.000000 5.477226
62.040280 29.000000 5.385165
62.060712 23.000000 4.795832
62.081144 28.000000 5.291503
62.101576 34.000000 5.830952
62.122008 36.000000 6.000000
62.142440 27.000000 5.196152
62.162872 39.000000 6.244998
62.183304 34.000000 5.830952
62.203736 30.000000 5.477226
62.224168 37.000000 6.082763
62.244600 19.000000 4.358899
62.265032 43.000000 6.557439
62.285464 25.000000 5.000000
62.305896 30.000000 5.477226
62.326328 26.000000 5.099020
62.346760 19.000000 4.358899
62.367192 33.000000 5.744563
62.387624 23.000000 4.795832
62.408056 32.000000 5.656854
62.428488 32.000000 5.656854
62.448920 32.000000 5.656854
62.469352 26.000000 5.099020
62.489784 31.000000 5.567764
62.510216 30.000000 5.477226
62.530648 31.000000 5.567764
62.551080 41.000000 6.403124
62.571512 34.000000 5.830952
62.591944 22.000000 4.690416
62.612376 27.000000 5.196152
62.632808 21.000000 4.582576
62.653240 21.000000 4.582576
62.673672 30.000000 5.477226
62.694104 28.000000 5.291503
62.714536 23.000000 4.795832
62.734968 33.000000 5.744563
62.755400 30.000000 5.477226
62.775832 26.000000 5.099020
62.796264 25.000000 5.000000
62.816696 33.000000 5.744563
62.837128 33.000000 5.744563
62.857560 26.000000 5.099020
62.877992 36.000000 6.000000
62.898424 26.000000 5.099020
62.918856 20.000000 4.472136
62.939288 31.000000 5.567764
62.959720 24.000000 4.898979
62.980152 29.000000 5.385165
63.000584 31.000000 5.567764
63.021016 39.000000 6.244998
63.041448 36.000000 6.000000
63.061880 31.000000 5.567764
63.082312 28.000000 5.291503
63.102744 22.000000 4.690416
63.123176 30.000000 5.477226
63.143608 29.000000 5.385165
63.164040 33.000000 5.744563
63.184472 34.000000 5.830952
63.204904 27.000000 5.196152
63.225336 26.000000 5.099020
63.245768 35.000000 5.916080
63.266200 37.000000 6.082763
63.286632 32.000000 5.656854
63.307064 27.000000 5.196152
63.327496 28.000000 5.291503
63.347928 24.000000 4.898979
63.368360 26.000000 5.099020
63.388792 26.000000 5.099020
63.409224 30.000000 5.477226
63.429656 26.000000 5.099020
63.450088 32.000000 5.656854
63.470520 32.000000 5.656854
63.490952 26.000000 5.099020
63.511384 47.000000 6.855655
63.531816 56.000000 7.483315
63.552248 60.000000 7.745967
63.572680 80.000000 8.944272
63.593112 68.000000 8.246211
63.613543 79.000000 8.888194
63.633975 70.000000 8.366600
63.654407 61.000000 7.810250
63.674839 47.000000 6.855655
63.695271 51.000000 7.141428
63.715703 54.000000 7.348469
63.736135 55.000000 7.416198
63.756567 49.000000 7.000000
63.776999 48.000000 6.928203
63.797431 49.000000 7.000000
63.817863 42.000000 6.480741
63.838295 55.000000 7.416198
63.858727 39.000000 6.244998
63.879159 37.000000 6.082763
63.899591 43.000000 6.557439
63.920023 39.000000 6.244998
63.940455 25.000000 5.000000
63.960887 32.000000 5.656854
63.981319 31.000000 5.567764
64.001751 35.000000 5.916080
64.022183 28.000000 5.291503
64.042615 27.000000 5.196152
64.063047 34.000000 5.830952
64.083479 26.000000 5.099020
64.103911 31.000000 5.567764
64.124343 23.000000 4.795832
64.144775 27.000000 5.196152
64.165207 31.000000 5.567764
64.185639 24.000000 4.898979
64.206071 23.000000 4.795832
64.226503 38.000000 6.164414
64.246935 24.000000 4.898979
64.267367 22.000000 4.690416
64.287799 25.000000 5.000000
64.308231 27.000000 5.196152
64.328663 22.000000 4.690416
64.349095 34.000000 5.830952
64.369527 30.000000 5.477226
64.389959 19.000000 4.358899
64.410391 32.000000 5.656854
64.430823 24.000000 4.898979
64.451255 29.000000 5.385165
64.471687 29.000000 5.385165
64.492119 19.000000 4.358899
64.512551 25.000000 5.000000
64.532983 29.000000 5.385165
64.553415 18.000000 4.242641
64.573847 22.000000 4.690416
64.594279 26.000000 5.099020
64.614711 28.000000 5.291503
64.635143 20.000000 4.472136
64.655575 28.000000 5.291503
64.676007 28.000000 5.291503
64.696439 22.000000 4.690416
64.716871 24.000000 4.898979
64.737303 20.000000 4.472136
64.757735 25.000000 5.000000
64.778167 25.000000 5.000000
64.798599 38.000000 6.164414
64.819031 24.000000 4.898979
64.839463 25.000000 5.000000
64.859895 23.000000 4.795832
64.880327 32.000000 5.656854
64.900759 39.000000 6.244998
64.921191 27.000000 5.196152
64.941623 24.000000 4.898979
64.962055 36.000000 6.000000
64.982487 17.000000 4.123106
65.002919 33.000000 5.744563
65.023351 30.000000 5.477226
65.043783 20.000000 4.472136
65.064215 28.000000 5.291503
65.084647 44.000000 6.633250
65.105079 32.000000 5.656854
65.125511 32.000000 5.656854
65.145943 22.000000 4.690416
65.166375 30.000000 5.477226
65.186807 24.000000 4.898979
65.207239 34.000000 5.830952
65.227671 29.000000 5.385165
65.248103 29.000000 5.385165
65.268535 24.000000 4.898979
65.288967 21.000000 4.582576
65.309399 42.000000 6.480741
65.329831 39.000000 6.244998
65.350263 43.000000 6.557439
65.370695 32.000000 5.656854
65.391127 31.000000 5.567764
65.411559 31.000000 5.567764
65.431991 39.000000 6.244998
65.452423 44.000000 6.633250
65.472855 34.000000 5.830952
65.493287 36.000000 6.000000
65.513719 45.000000 6.708204
65.534151 37.000000 6.082763
65.554583 35.000000 5.916080
65.575015 36.000000 6.000000
65.595447 36.000000 6.000000
65.615879 38.000000 6.164414
65.636311 40.000000 6.324555
65.656743 40.000000 6.324555
65.677175 23.000000 4.795832
65.697607 31.000000 5.567764
65.718039 44.000000 6.633250
65.738471 35.000000 5.916080
65.758903 29.000000 5.385165
65.779335 26.000000 5.099020
65.799766 37.000000 6.082763
65.820198 52.000000 7.211103
65.840630 52.000000 7.211103
65.861062 54.000000 7.348469
65.881494 62.000000 7.874008
65.901926 78.000000 8.831761
65.922358 78.000000 8.831761
65.942790 85.000000 9.219544
65.963222 69.000000 8.306624
65.983654 67.000000 8.185353
66.004086 87.000000 9.327379
66.024518 91.000000 9.539392
66.044950 71.000000 8.426150
66.065382 69.000000 8.306624
66.085814 79.000000 8.888194
66.106246 74.000000 8.602325
66.126678 63.000000 7.937254
66.147110 69.000000 8.306624
66.167542 64.000000 8.000000
66.187974 68.000000 8.246211
66.208406 66.000000 8.124038
66.228838 63.000000 7.937254
66.249270 60.000000 7.745967
66.269702 52.000000 7.211103
66.290134 54.000000 7.348469
66.310566 64.000000 8.000000
66.330998 44.000000 6.633250
66.351430 53.000000 7.280110
66.371862 55.000000 7.416198
66.392294 67.000000 8.185353
66.412726 75.000000 8.660254
66.433158 66.000000 8.124038
66.453590 68.000000 8.246211
66.474022 80.000000 8.944272
66.494454 74.000000 8.602325
66.514886 81.000000 9.000000
66.535318 71.000000 8.426150
66.555750 79.000000 8.888194
66.576182 92.000000 9.591663
66.596614 65.000000 8.062258
66.617046 53.000000 7.280110
66.637478 64.000000 8.000000
66.657910 80.000000 8.944272
66.678342 64.000000 8.000000
66.698774 69.000000 8.306624
66.719206 63.000000 7.937254
66.739638 62.000000 7.874008
66.760070 53.000000 7.280110
66.780502 43.000000 6.557439
66.800934 43.000000 6.557439
66.821366 41.000000 6.403124
66.841798 38.000000 6.164414
66.862230 37.000000 6.082763
66.882662 37.000000 6.082763
66.903094 44.000000 6.633250
66.923526 34.000000 5.830952
66.943958 22.000000 4.690416
66.964390 27.000000 5.196152
66.984822 29.000000 5.385165
67.005254 33.000000 5.744563
67.025686 30.000000 5.477226
67.046118 27.000000 5.196152
67.066550 28.000000 5.291503
67.086982 37.000000 6.082763
67.107414 35.000000 5.916080
67.127846 26.000000 5.099020
67.148278 42.000000 6.480741
67.168710 25.000000 5.000000
67.189142 32.000000 5.656854
67.209574 31.000000 5.567764
67.230006 34.000000 5.830952
67.250438 38.000000 6.164414
67.270870 30.000000 5.477226
67.291302 24.000000 4.898979
67.311734 25.000000 5.000000
67.332166 38.000000 6.164414
67.352598 20.000000 4.472136
67.373030 35.000000 5.916080
67.393462 33.000000 5.744563
67.413894 27.000000 5.196152
67.434326 22.000000 4.690416
67.454758 20.000000 4.472136
67.475190 22.000000 4.690416
67.495622 32.000000 5.656854
67.516054 31.000000 5.567764
67.536486 25.000000 5.000000
67.556918 36.000000 6.000000
67.577350 26.000000 5.099020
67.597782 32.000000 5.656854
67.618214 22.000000 4.690416
67.638646 30.000000 5.477226
67.659078 17.000000 4.123106
67.679510 31.000000 5.567764
67.699942 29.000000 5.385165
67.720374 18.000000 4.242641
67.740806 35.000000 5.916080
67.761238 23.000000 4.795832
67.781670 29.000000 5.385165
67.802102 23.000000 4.795832
67.822534 28.000000 5.291503
67.842966 25.000000 5.000000
67.863398 32.000000 5.656854
67.883830 26.000000 5.099020
67.904262 32.000000 5.656854
67.924694 31.000000 5.567764
67.945126 43.000000 6.557439
67.965558 35.000000 5.916080
67.985989 29.000000 5.385165
68.006421 47.000000 6.855655
68.026853 30.000000 5.477226
68.047285 48.000000 6.928203
68.067717 32.000000 5.656854
68.088149 40.000000 6.324555
68.108581 34.000000 5.830952
68.129013 50.000000 7.071068
68.149445 46.000000 6.782330
68.169877 60.000000 7.745967
68.190309 56.000000 7.483315
68.210741 55.000000 7.416198
68.231173 60.000000 7.745967
68.251605 53.000000 7.280110
68.272037 26.000000 5.099020
68.292469 43.000000 6.557439
68.312901 48.000000 6.928203
68.333333 55.000000 7.416198
68.353765 42.000000 6.480741
68.374197 39.000000 6.244998
68.394629 40.000000 6.324555
68.415061 38.000000 6.164414
68.435493 28.000000 5.291503
68.455925 33.000000 5.744563
68.476357 23.000000 4.795832
68.496789 27.000000 5.196152
68.517221 31.000000 5.567764
68.537653 28.000000 5.291503
68.558085 29.000000 5.385165
68.578517 24.000000 4.898979
68.598949 28.000000 5.291503
68.619381 29.000000 5.385165
68.639813 27.000000 5.196152
68.660245 19.000000 4.358899
68.680677 24.000000 4.898979
68.701109 20.000000 4.472136
68.721541 32.000000 5.656854
68.741973 22.000000 4.690416
68.762405 29.000000 5.385165
68.782837 24.000000 4.898979
68.803269 21.000000 4.582576
68.823701 27.000000 5.196152
68.844133 28.000000 5.291503
68.864565 23.000000 4.795832
68.884997 23.000000 4.795832
68.905429 31.000000 5.567764
68.925861 34.000000 5.830952
68.946293 22.000000 4.690416
68.966725 21.000000 4.582576
68.987157 33.000000 5.744563
69.007589 21.000000 4.582576
69.028021 28.000000 5.291503
69.048453 37.000000 6.082763
69.068885 25.000000 5.000000
69.089317 20.000000 4.472136
69.109749 38.000000 6.164414
69.130181 40.000000 6.324555
69.150613 46.000000 6.782330
69.171045 44.000000 6.633250
69.191477 52.000000 7.211103
69.211909 51.000000 7.141428
69.232341 61.000000 7.810250
69.252773 54.000000 7.348469
69.273205 74.000000 8.602325
69.293637 58.000000 7.615773
69.314069 57.000000 7.549834
69.334501 51.000000 7.141428
69.354933 50.000000 7.071068
69.375365 39.000000 6.244998
69.395797 41.000000 6.403124
69.416229 50.000000 7.071068
69.436661 49.000000 7.000000
69.457093 51.000000 7.141428
69.477525 70.000000 8.366600
69.497957 52.000000 7.211103
69.518389 58.000000 7.615773
69.538821 52.000000 7.211103
69.559253 64.000000 8.000000
69.579685 55.000000 7.416198
69.600117 55.000000 7.416198
69.620549 55.000000 7.416198
69.640981 55.000000 7.416198
69.661413 73.000000 8.544004
69.681845 73.000000 8.544004
69.702277 84.000000 9.165151
69.722709 100.000000 10.000000
69.743141 102.000000 10.099505
69.763573 72.000000 8.485281
69.784005 78.000000 8.831761
69.804437 67.000000 8.185353
69.824869 74.000000 8.602325
69.845301 72.000000 8.485281
69.865733 61.000000 7.810250
69.886165 55.000000 7.416198
69.906597 65.000000 8.062258
69.927029 52.000000 7.211103
69.947461 59.000000 7.681146
69.967893 48.000000 6.928203
69.988325 53.000000 7.280110
70.008757 37.000000 6.082763
70.029189 42.000000 6.480741
70.049621 45.000000 6.708204
70.070053 28.000000 5.291503
70.090485 53.000000 7.280110
70.110917 31.000000 5.567764
70.131349 39.000000 6.244998
70.151781 43.000000 6.557439
70.172212 47.000000 6.855655
70.192644 42.000000 6.480741
70.213076 51.000000 7.141428
70.233508 49.000000 7.000000
70.253940 44.000000 6.633250
70.274372 37.000000 6.082763
70.294804 36.000000 6.000000
70.315236 33.000000 5.744563
70.335668 53.000000 7.280110
70.356100 42.000000 6.480741
70.376532 31.000000 5.567764
70.396964 43.000000 6.557439
70.417396 38.000000 6.164414
70.437828 47.000000 6.855655
70.458260 37.000000 6.082763
70.478692 41.000000 6.403124
70.499124 28.000000 5.291503
70.519556 44.000000 6.633250
70.539988 37.000000 6.082763
70.560420 42.000000 6.480741
70.580852 42.000000 6.480741
70.601284 35.000000 5.916080
70.621716 39.000000 6.244998
70.642148 32.000000 5.656854
70.662580 39.000000 6.244998
70.683012 40.000000 6.324555
70.703444 37.000000 6.082763
70.723876 46.000000 6.782330
70.744308 47.000000 6.855655
70.764740 34.000000 5.830952
70.785172 32.000000 5.656854
70.805604 36.000000 6.000000
70.826036 41.000000 6.403124
70.846468 26.000000 5.099020
70.866900 34.000000 5.830952
70.887332 42.000000 6.480741
70.907764 38.000000 6.164414
70.928196 51.000000 7.141428
70.948628 31.000000 5.567764
70.969060 30.000000 5.477226
70.989492 37.000000 6.082763
71.009924 37.000000 6.082763
71.030356 32.000000 5.656854
71.050788 40.000000 6.324555
71.071220 31.000000 5.567764
71.091652 44.000000 6.633250
71.112084 24.000000 4.898979
71.132516 30.000000 5.477226
71.152948 28.000000 5.291503
71.173380 36.000000 6.000000
71.193812 21.000000 4.582576
71.214244 24.000000 4.898979
71.234676 28.000000 5.291503
71.255108 29.000000 5.385165
71.275540 26.000000 5.099020
71.295972 18.000000 4.242641
71.316404 25.000000 5.000000
71.336836 24.000000 4.898979
71.357268 21.000000 4.582576
71.377700 15.000000 3.872983
71.398132 23.000000 4.795832
71.418564 35.000000 5.916080
71.438996 26.000000 5.099020
71.459428 30.000000 5.477226
71.479860 31.000000 5.567764
71.500292 27.000000 5.196152
71.520724 17.000000 4.123106
71.541156 27.000000 5.196152
71.561588 21.000000 4.582576
71.582020 27.000000 5.196152
71.602452 23.000000 4.795832
71.622884 29.000000 5.385165
71.643316 22.000000 4.690416
71.663748 27.000000 5.196152
71.684180 26.000000 5.099020
71.704612 24.000000 4.898979
71.725044 26.000000 5.099020
71.745476 24.000000 4.898979
71.765908 25.000000 5.000000
71.786340 20.000000 4.472136
71.806772 27.000000 5.196152
71.827204 31.000000 5.567764
71.847636 23.000000 4.795832
71.868068 40.000000 6.324555
71.888500 15.000000 3.872983
71.908932 21.000000 4.582576
71.929364 23.000000 4.795832
71.949796 25.000000 5.000000
71.970228 28.000000 5.291503
71.990660 31.000000 5.567764
72.011092 29.000000 5.385165
72.031524 20.000000 4.472136
72.051956 25.000000 5.000000
72.072388 19.000000 4.358899
72.092820 27.000000 5.196152
72.113252 19.000000 4.358899
72.133684 26.000000 5.099020
72.154116 26.000000 5.099020
72.174548 19.000000 4.358899
72.194980 34.000000 5.830952
72.215412 25.000000 5.000000
72.235844 26.000000 5.099020
72.256276 33.000000 5.744563
72.276708 22.000000 4.690416
72.297140 27.000000 5.196152
72.317572 24.000000 4.898979
72.338004 23.000000 4.795832
72.358435 29.000000 5.385165
72.378867 31.000000 5.567764
72.399299 23.000000 4.795832
72.419731 28.000000 5.291503
72.440163 23.000000 4.795832
72.460595 22.000000 4.690416
72.481027 28.000000 5.291503
72.501459 32.000000 5.656854
72.521891 28.000000 5.291503
72.542323 24.000000 4.898979
72.562755 32.000000 5.656854
72.583187 29.000000 5.385165
72.603619 29.000000 5.385165
72.624051 33.000000 5.744563
72.644483 31.000000 5.567764
72.664915 35.000000 5.916080
72.685347 44.000000 6.633250
72.705779 38.000000 6.164414
72.726211 50.000000 7.071068
72.746643 49.000000 7.000000
72.767075 46.000000 6.782330
72.787507 62.000000 7.874008
72.807939 58.000000 7.615773
72.828371 69.000000 8.306624
72.848803 57.000000 7.549834
72.869235 58.000000 7.615773
72.889667 48.000000 6.928203
72.910099 40.000000 6.324555
72.930531 53.000000 7.280110
72.950963 44.000000 6.633250
72.971395 63.000000 7.937254
72.991827 52.000000 7.211103
73.012259 49.000000 7.000000
73.032691 50.000000 7.071068
73.053123 46.000000 6.782330
73.073555 41.000000 6.403124
73.093987 41.000000 6.403124
73.114419 43.000000 6.557439
73.134851 50.000000 7.071068
73.155283 34.000000 5.830952
73.175715 42.000000 6.480741
73.196147 46.000000 6.782330
73.216579 32.000000 5.656854
73.237011 28.000000 5.291503
73.257443 28.000000 5.291503
73.277875 34.000000 5.830952
73.298307 36.000000 6.000000
73.318739 36.000000 6.000000
73.339171 27.000000 5.196152
73.359603 31.000000 5.567764
73.380035 35.000000 5.916080
73.400467 33.000000 5.744563
73.420899 39.000000 6.244998
73.441331 30.000000 5.477226
73.461763 29.000000 5.385165
73.482195 41.000000 6.403124
73.502627 35.000000 5.916080
73.523059 38.000000 6.164414
73.543491 39.000000 6.244998
73.563923 34.000000 5.830952
73.584355 32.000000 5.656854
73.604787 32.000000 5.656854
73.625219 34.000000 5.830952
73.645651 48.000000 6.928203
73.666083 37.000000 6.082763
73.686515 52.000000 7.211103
73.706947 33.000000 5.744563
73.727379 48.000000 6.928203
73.747811 45.000000 6.708204
73.768243 35.000000 5.916080
73.788675 47.000000 6.855655
73.809107 57.000000 7.549834
73.829539 65.000000 8.062258
73.849971 33.000000 5.744563
73.870403 52.000000 7.211103
73.890835 53.000000 7.280110
73.911267 55.000000 7.416198
73.931699 41.000000 6.403124
73.952131 56.000000 7.483315
73.972563 50.000000 7.071068
73.992995 42.000000 6.480741
74.013427 52.000000 7.211103
74.033859 54.000000 7.348469
74.054291 43.000000 6.557439
74.074723 47.000000 6.855655
74.095155 55.000000 7.416198
74.115587 43.000000 6.557439
74.136019 45.000000 6.708204
74.156451 49.000000 7.000000
74.176883 54.000000 7.348469
74.197315 46.000000 6.782330
74.217747 46.000000 6.782330
74.238179 54.000000 7.348469
74.258611 48.000000 6.928203
74.279043 69.000000 8.306624
74.299475 55.000000 7.416198
74.319907 76.000000 8.717798
74.340339 73.000000 8.544004
74.360771 99.000000 9.949874
74.381203 114.000000 10.677078
74.401635 110.000000 10.488088
74.422067 125.000000 11.180340
74.442499 117.000000 10.816654
74.462931 131.000000 11.445523
74.483363 117.000000 10.816654
74.503795 121.000000 11.000000
74.524227 111.000000 10.535654
74.544658 114.000000 10.677078
74.565090 112.000000 10.583005
74.585522 99.000000 9.949874
74.605954 94.000000 9.695360
74.626386 114.000000 10.677078
74.646818 102.000000 10.099505
74.667250 100.000000 10.000000
74.687682 98.000000 9.899495
74.708114 78.000000 8.831761
74.728546 94.000000 9.695360
74.748978 113.000000 10.630146
74.769410 101.000000 10.049876
74.789842 108.000000 10.392305
74.810274 117.000000 10.816654
74.830706 122.000000 11.045361
74.851138 111.000000 10.535654
74.871570 95.000000 9.746794
74.892002 79.000000 8.888194
74.912434 81.000000 9.000000
74.932866 69.000000 8.306624
74.953298 82.000000 9.055385
74.973730 67.000000 8.185353
74.994162 81.000000 9.000000
75.014594 80.000000 8.944272
75.035026 88.000000 9.380832
75.055458 93.000000 9.643651
75.075890 70.000000 8.366600
75.096322 68.000000 8.246211
75.116754 69.000000 8.306624
75.137186 54.000000 7.348469
75.157618 46.000000 6.782330
75.178050 55.000000 7.416198
75.198482 49.000000 7.000000
75.218914 41.000000 6.403124
75.239346 52.000000 7.211103
75.259778 47.000000 6.855655
75.280210 31.000000 5.567764
75.300642 45.000000 6.708204
75.321074 62.000000 7.874008
75.341506 44.000000 6.633250
75.361938 52.000000 7.211103
75.382370 45.000000 6.708204
75.402802 49.000000 7.000000
75.423234 64.000000 8.000000
75.443666 66.000000 8.124038
75.464098 57.000000 7.549834
75.484530 56.000000 7.483315
75.504962 54.000000 7.348469
75.525394 64.000000 8.000000
75.545826 66.000000 8.124038
75.566258 57.000000 7.549834
75.586690 70.000000 8.366600
75.607122 70.000000 8.366600
75.627554 71.000000 8.426150
75.647986 95.000000 9.746794
75.668418 78.000000 8.831761
75.688850 105.000000 10.246951
75.709282 95.000000 9.746794
75.729714 104.000000 10.198039
75.750146 85.000000 9.219544
75.770578 102.000000 10.099505
75.791010 104.000000 10.198039
75.811442 121.000000 11.000000
75.831874 115.000000 10.723805
75.852306 142.000000 11.916375
75.872738 131.000000 11.445523
75.893170 137.000000 11.704700
75.913602 121.000000 11.000000
75.934034 113.000000 10.630146
75.954466 111.000000 10.535654
75.974898 90.000000 9.486833
75.995330 82.000000 9.055385
76.015762 100.000000 10.000000
76.036194 94.000000 9.695360
76.056626 96.000000 9.797959
76.077058 96.000000 9.797959
76.097490 79.000000 8.888194
76.117922 89.000000 9.433981
76.138354 74.000000 8.602325
76.158786 91.000000 9.539392
76.179218 71.000000 8.426150
76.199650 80.000000 8.944272
76.220082 73.000000 8.544004
76.240514 59.000000 7.681146
76.260946 60.000000 7.745967
76.281378 63.000000 7.937254
76.301810 56.000000 7.483315
76.322242 61.000000 7.810250
76.342674 46.000000 6.782330
76.363106 98.000000 9.899495
76.383538 65.000000 8.062258
76.403970 79.000000 8.888194
76.424402 91.000000 9.539392
76.444834 98.000000 9.899495
76.465266 122.000000 11.045361
76.485698 124.000000 11.135529
76.506130 131.000000 11.445523
76.526562 129.000000 11.357817
76.546994 92.000000 9.591663
76.567426 104.000000 10.198039
76.587858 98.000000 9.899495
76.608290 91.000000 9.539392
76.628722 96.000000 9.797959
76.649154 95.000000 9.746794
76.669586 100.000000 10.000000
76.690018 117.000000 10.816654
76.710450 120.000000 10.954451
76.730881 133.000000 11.532563
76.751313 99.000000 9.949874
76.771745 109.000000 10.440307
76.792177 108.000000 10.392305
76.812609 80.000000 8.944272
76.833041 53.000000 7.280110
76.853473 53.000000 7.280110
76.873905 64.000000 8.000000
76.894337 46.000000 6.782330
76.914769 54.000000 7.348469
76.935201 50.000000 7.071068
76.955633 61.000000 7.810250
76.976065 52.000000 7.211103
76.996497 51.000000 7.141428
77.016929 43.000000 6.557439
77.037361 49.000000 7.000000
77.057793 40.000000 6.324555
77.078225 41.000000 6.403124
77.098657 41.000000 6.403124
77.119089 34.000000 5.830952
77.139521 37.000000 6.082763
77.159953 37.000000 6.082763
77.180385 32.000000 5.656854
77.200817 30.000000 5.477226
77.221249 35.000000 5.916080
77.241681 37.000000 6.082763
77.262113 35.000000 5.916080
77.282545 34.000000 5.830952
77.302977 32.000000 5.656854
77.323409 24.000000 4.898979
77.343841 40.000000 6.324555
77.364273 37.000000 6.082763
77.384705 33.000000 5.744563
77.405137 42.000000 6.480741
77.425569 44.000000 6.633250
77.446001 36.000000 6.000000
77.466433 50.000000 7.071068
77.486865 43.000000 6.557439
77.507297 54.000000 7.348469
77.527729 39.000000 6.244998
77.548161 42.000000 6.480741
77.568593 52.000000 7.211103
77.589025 38.000000 6.164414
77.609457 48.000000 6.928203
77.629889 46.000000 6.782330
77.650321 43.000000 6.557439
77.670753 46.000000 6.782330
77.691185 46.000000 6.782330
77.711617 54.000000 7.348469
77.732049 34.000000 5.830952
77.752481 50.000000 7.071068
77.772913 47.000000 6.855655
77.793345 50.000000 7.071068
77.813777 43.000000 6.557439
77.834209 39.000000 6.244998
77.854641 49.000000 7.000000
77.875073 35.000000 5.916080
77.895505 40.000000 6.324555
77.915937 31.000000 5.567764
77.936369 36.000000 6.000000
77.956801 30.000000 5.477226
77.977233 41.000000 6.403124
77.997665 40.000000 6.324555
78.018097 45.000000 6.708204
78.038529 53.000000 7.280110
78.058961 41.000000 6.403124
78.079393 54.000000 7.348469
78.099825 47.000000 6.855655
78.120257 54.000000 7.348469
78.140689 44.000000 6.633250
78.161121 38.000000 6.164414
78.181553 38.000000 6.164414
78.201985 47.000000 6.855655
78.222417 46.000000 6.782330
78.242849 49.000000 7.000000
78.263281 35.000000 5.916080
78.283713 40.000000 6.324555
78.304145 27.000000 5.196152
78.324577 37.000000 6.082763
78.345009 36.000000 6.000000
78.365441 49.000000 7.000000
78.385873 48.000000 6.928203
78.406305 39.000000 6.244998
78.426737 42.000000 6.480741
78.447169 50.000000 7.071068
78.467601 54.000000 7.348469
78.488033 53.000000 7.280110
78.508465 50.000000 7.071068
78.528897 59.000000 7.681146
78.549329 51.000000 7.141428
78.569761 44.000000 6.633250
78.590193 44.000000 6.633250
78.610625 41.000000 6.403124
78.631057 62.000000 7.874008
78.651489 44.000000 6.633250
78.671921 49.000000 7.000000
78.692353 44.000000 6.633250
78.712785 39.000000 6.244998
78.733217 42.000000 6.480741
78.753649 44.000000 6.633250
78.774081 45.000000 6.708204
78.794513 42.000000 6.480741
78.814945 39.000000 6.244998
78.835377 51.000000 7.141428
78.855809 36.000000 6.000000
78.876241 43.000000 6.557439
78.896673 49.000000 7.000000
78.917104 45.000000 6.708204
78.937536 52.000000 7.211103
78.957968 45.000000 6.708204
78.978400 55.000000 7.416198
78.998832 62.000000 7.874008
79.019264 30.000000 5.477226
79.039696 35.000000 5.916080
79.060128 42.000000 6.480741
79.080560 34.000000 5.830952
79.100992 36.000000 6.000000
79.121424 43.000000 6.557439
79.141856 30.000000 5.477226
79.162288 32.000000 5.656854
79.182720 45.000000 6.708204
79.203152 38.000000 6.164414
79.223584 46.000000 6.782330
79.244016 45.000000 6.708204
79.264448 47.000000 6.855655
79.284880 40.000000 6.324555
79.305312 40.000000 6.324555
79.325744 41.000000 6.403124
79.346176 24.000000 4.898979
79.366608 35.000000 5.916080
79.387040 33.000000 5.744563
79.407472 27.000000 5.196152
79.427904 29.000000 5.385165
79.448336 37.000000 6.082763
79.468768 29.000000 5.385165
79.489200 33.000000 5.744563
79.509632 30.000000 5.477226
79.530064 37.000000 6.082763
79.550496 36.000000 6.000000
79.570928 39.000000 6.244998
79.591360 37.000000 6.082763
79.611792 35.000000 5.916080
79.632224 31.000000 5.567764
79.652656 26.000000 5.099020
79.673088 32.000000 5.656854
79.693520 42.000000 6.480741
79.713952 47.000000 6.855655
79.734384 40.000000 6.324555
79.754816 37.000000 6.082763
79.775248 41.000000 6.403124
79.795680 44.000000 6.633250
79.816112 53.000000 7.280110
79.836544 40.000000 6.324555
79.856976 49.000000 7.000000
79.877408 34.000000 5.830952
79.897840 40.000000 6.324555
79.918272 34.000000 5.830952
79.938704 44.000000 6.633250
79.959136 36.000000 6.000000
79.979568 34.000000 5.830952
80.000000 42.000000 6.480741
