# Two-Theta Intensity Error
10.000100 595.000000 24.392622
10.020500 581.000000 24.103942
10.041000 565.000000 23.769729
10.061400 549.000000 23.430749
10.081800 532.000000 23.065125
10.102300 549.000000 23.430749
10.122700 526.000000 22.934690
10.143100 579.000000 24.062419
10.163600 568.000000 23.832751
10.184000 550.000000 23.452079
10.204400 552.000000 23.494680
10.224900 525.000000 22.912878
10.245300 524.000000 22.891046
10.265700 543.000000 23.302360
10.286200 562.000000 23.706539
10.306600 521.000000 22.825424
10.327000 583.000000 24.145393
10.347400 562.000000 23.706539
10.367900 503.000000 22.427661
10.388300 548.000000 23.409400
10.408700 552.000000 23.494680
10.429200 525.000000 22.912878
10.449600 521.000000 22.825424
10.470000 561.000000 23.685439
10.490500 562.000000 23.706539
10.510900 525.000000 22.912878
10.531300 519.000000 22.781571
10.551800 536.000000 23.151674
10.572200 531.000000 23.043437
10.592600 514.000000 22.671568
10.613100 513.000000 22.649503
10.633500 498.000000 22.315914
10.653900 503.000000 22.427661
10.674400 513.000000 22.649503
10.694800 487.000000 22.068076
10.715200 494.000000 22.226111
10.735700 470.000000 21.679483
10.756100 537.000000 23.173260
10.776500 518.000000 22.759613
10.797000 519.000000 22.781571
10.817400 485.000000 22.022716
10.837800 480.000000 21.908902
10.858300 496.000000 22.271057
10.878700 481.000000 21.931712
10.899100 509.000000 22.561028
10.919600 468.000000 21.633308
10.940000 444.000000 21.071308
10.960400 481.000000 21.931712
10.980800 516.000000 22.715633
11.001300 500.000000 22.360680
11.021700 472.000000 21.725561
11.042100 480.000000 21.908902
11.062600 489.000000 22.113344
11.083000 503.000000 22.427661
11.103400 450.000000 21.213203
11.123900 454.000000 21.307276
11.144300 475.000000 21.794495
11.164700 446.000000 21.118712
11.185200 445.000000 21.095023
11.205600 468.000000 21.633308
11.226000 470.000000 21.679483
11.246500 462.000000 21.494185
11.266900 487.000000 22.068076
11.287300 472.000000 21.725561
11.307800 450.000000 21.213203
11.328200 480.000000 21.908902
11.348600 490.000000 22.135944
11.369100 429.000000 20.712315
11.389500 446.000000 21.118712
11.409900 445.000000 21.095023
11.430400 466.000000 21.587033
11.450800 422.000000 20.542639
11.471200 474.000000 21.771541
11.491700 461.000000 21.470911
11.512100 438.000000 20.928450
11.532500 403.000000 20.074860
11.552900 398.000000 19.949937
11.573400 439.000000 20.952327
11.593800 435.000000 20.856654
11.614200 434.000000 20.832667
11.634700 439.000000 20.952327
11.655100 419.000000 20.469489
11.675500 428.000000 20.688161
11.696000 449.000000 21.189620
11.716400 445.000000 21.095023
11.736800 397.000000 19.924859
11.757300 464.000000 21.540659
11.777700 444.000000 21.071308
11.798100 416.000000 20.396078
11.818600 442.000000 21.023796
11.839000 410.000000 20.248457
11.859400 424.000000 20.591260
11.879900 420.000000 20.493902
11.900300 431.000000 20.760539
11.920700 442.000000 21.023796
11.941200 458.000000 21.400935
11.961600 474.000000 21.771541
11.982000 483.000000 21.977261
12.002500 467.000000 21.610183
12.022900 514.000000 22.671568
12.043300 516.000000 22.715633
12.063800 489.000000 22.113344
12.084200 459.000000 21.424285
12.104600 417.000000 20.420578
12.125100 447.000000 21.142375
12.145500 375.000000 19.364917
12.165900 374.000000 19.339080
12.186300 428.000000 20.688161
12.206800 413.000000 20.322401
12.227200 403.000000 20.074860
12.247600 402.000000 20.049938
12.268100 362.000000 19.026298
12.288500 402.000000 20.049938
12.308900 379.000000 19.467922
12.329400 356.000000 18.867962
12.349800 374.000000 19.339080
12.370200 384.000000 19.595918
12.390700 381.000000 19.519221
12.411100 348.000000 18.654758
12.431500 314.000000 17.720045
12.452000 381.000000 19.519221
12.472400 373.000000 19.313208
12.492800 313.000000 17.691806
12.513300 360.000000 18.973666
12.533700 347.000000 18.627936
12.554100 345.000000 18.574176
12.574600 323.000000 17.972201
12.595000 301.000000 17.349352
12.615400 338.000000 18.384776
12.635900 368.000000 19.183326
12.656300 337.000000 18.357560
12.676700 331.000000 18.193405
12.697200 317.000000 17.804494
12.717600 311.000000 17.635192
12.738000 329.000000 18.138357
12.758500 336.000000 18.330303
12.778900 359.000000 18.947295
12.799300 312.000000 17.663522
12.819700 317.000000 17.804494
12.840200 330.000000 18.165902
12.860600 312.000000 17.663522
12.881000 315.000000 17.748239
12.901500 300.000000 17.320508
12.921900 315.000000 17.748239
12.942300 353.000000 18.788294
12.962800 309.000000 17.578396
12.983200 326.000000 18.055470
13.003600 335.000000 18.303005
13.024100 303.000000 17.406895
13.044500 315.000000 17.748239
13.064900 290.000000 17.029386
13.085400 275.000000 16.583124
13.105800 292.000000 17.088007
13.126200 298.000000 17.262677
13.146700 291.000000 17.058722
13.167100 301.000000 17.349352
13.187500 287.000000 16.941074
13.208000 303.000000 17.406895
13.228400 261.000000 16.155494
13.248800 289.000000 17.000000
13.269300 281.000000 16.763055
13.289700 307.000000 17.521415
13.310100 289.000000 17.000000
13.330600 319.000000 17.860571
13.351000 263.000000 16.217275
13.371400 257.000000 16.031220
13.391800 272.000000 16.492423
13.412300 268.000000 16.370706
13.432700 289.000000 17.000000
13.453100 293.000000 17.117243
13.473600 273.000000 16.522712
13.494000 254.000000 15.937377
13.514400 268.000000 16.370706
13.534900 272.000000 16.492423
13.555300 301.000000 17.349352
13.575700 274.000000 16.552945
13.596200 264.000000 16.248077
13.616600 259.000000 16.093477
13.637000 276.000000 16.613248
13.657500 254.000000 15.937377
13.677900 258.000000 16.062378
13.698300 275.000000 16.583124
13.718800 278.000000 16.673332
13.739200 312.000000 17.663522
13.759600 363.000000 19.052559
13.780100 342.000000 18.493242
13.800500 340.000000 18.439089
13.820900 365.000000 19.104973
13.841400 336.000000 18.330303
13.861800 308.000000 17.549929
13.882200 274.000000 16.552945
13.902700 235.000000 15.329710
13.923100 241.000000 15.524175
13.943500 246.000000 15.684387
13.964000 217.000000 14.730920
13.984400 226.000000 15.033296
14.004800 246.000000 15.684387
14.025200 256.000000 16.000000
14.045700 243.000000 15.588457
14.066100 240.000000 15.491933
14.086500 262.000000 16.186414
14.107000 256.000000 16.000000
14.127400 279.000000 16.703293
14.147800 289.000000 17.000000
14.168300 283.000000 16.822604
14.188700 233.000000 15.264338
14.209100 254.000000 15.937377
14.229600 237.000000 15.394804
14.250000 240.000000 15.491933
14.270400 240.000000 15.491933
14.290900 218.000000 14.764823
14.311300 272.000000 16.492423
14.331700 241.000000 15.524175
14.352200 213.000000 14.594520
14.372600 259.000000 16.093477
14.393000 217.000000 14.730920
14.413500 253.000000 15.905974
14.433900 233.000000 15.264338
14.454300 204.000000 14.282857
14.474800 228.000000 15.099669
14.495200 206.000000 14.352700
14.515600 216.000000 14.696938
14.536100 241.000000 15.524175
14.556500 211.000000 14.525839
14.576900 230.000000 15.165751
14.597400 215.000000 14.662878
14.617800 223.000000 14.933185
14.638200 202.000000 14.212670
14.658600 213.000000 14.594520
14.679100 196.000000 14.000000
14.699500 221.000000 14.866069
14.719900 219.000000 14.798649
14.740400 175.000000 13.228757
14.760800 248.000000 15.748016
14.781200 214.000000 14.628739
14.801700 228.000000 15.099669
14.822100 209.000000 14.456832
14.842500 245.000000 15.652476
14.863000 243.000000 15.588457
14.883400 205.000000 14.317821
14.903800 197.000000 14.035669
14.924300 216.000000 14.696938
14.944700 236.000000 15.362291
14.965100 207.000000 14.387495
14.985600 193.000000 13.892444
15.006000 207.000000 14.387495
15.026400 241.000000 15.524175
15.046900 215.000000 14.662878
15.067300 236.000000 15.362291
15.087700 253.000000 15.905974
15.108200 279.000000 16.703293
15.128600 297.000000 17.233688
15.149000 364.000000 19.078784
15.169500 361.000000 19.000000
15.189900 361.000000 19.000000
15.210300 310.000000 17.606817
15.230700 268.000000 16.370706
15.251200 236.000000 15.362291
15.271600 213.000000 14.594520
15.292000 210.000000 14.491377
15.312500 215.000000 14.662878
15.332900 178.000000 13.341664
15.353300 170.000000 13.038405
15.373800 191.000000 13.820275
15.394200 193.000000 13.892444
15.414600 180.000000 13.416408
15.435100 207.000000 14.387495
15.455500 217.000000 14.730920
15.475900 201.000000 14.177447
15.496400 190.000000 13.784049
15.516800 194.000000 13.928388
15.537200 163.000000 12.767145
15.557700 184.000000 13.564660
15.578100 179.000000 13.379088
15.598500 162.000000 12.727922
15.619000 194.000000 13.928388
15.639400 179.000000 13.379088
15.659800 206.000000 14.352700
15.680300 158.000000 12.569805
15.700700 165.000000 12.845233
15.721100 162.000000 12.727922
15.741600 204.000000 14.282857
15.762000 178.000000 13.341664
15.782400 163.000000 12.767145
15.802900 165.000000 12.845233
15.823300 166.000000 12.884099
15.843700 172.000000 13.114877
15.864100 154.000000 12.409674
15.884600 169.000000 13.000000
15.905000 151.000000 12.288206
15.925400 189.000000 13.747727
15.945900 162.000000 12.727922
15.966300 174.000000 13.190906
15.986700 147.000000 12.124356
16.007200 174.000000 13.190906
16.027600 157.000000 12.529964
16.048000 152.000000 12.328828
16.068500 160.000000 12.649111
16.088900 170.000000 13.038405
16.109300 164.000000 12.806248
16.129800 171.000000 13.076697
16.150200 163.000000 12.767145
16.170600 147.000000 12.124356
16.191100 163.000000 12.767145
16.211500 168.000000 12.961481
16.231900 161.000000 12.688578
16.252400 160.000000 12.649111
16.272800 182.000000 13.490738
16.293200 160.000000 12.649111
16.313700 141.000000 11.874342
16.334100 172.000000 13.114877
16.354500 168.000000 12.961481
16.375000 169.000000 13.000000
16.395400 173.000000 13.152946
16.415800 178.000000 13.341664
16.436300 163.000000 12.767145
16.456700 156.000000 12.489996
16.477100 159.000000 12.609520
16.497500 136.000000 11.661904
16.518000 159.000000 12.609520
16.538400 166.000000 12.884099
16.558800 133.000000 11.532563
16.579300 171.000000 13.076697
16.599700 138.000000 11.747340
16.620100 137.000000 11.704700
16.640600 146.000000 12.083046
16.661000 156.000000 12.489996
16.681400 146.000000 12.083046
16.701900 160.000000 12.649111
16.722300 150.000000 12.247449
16.742700 150.000000 12.247449
16.763200 152.000000 12.328828
16.783600 159.000000 12.609520
16.804000 141.000000 11.874342
16.824500 162.000000 12.727922
16.844900 145.000000 12.041595
16.865300 137.000000 11.704700
16.885800 135.000000 11.618950
16.906200 161.000000 12.688578
16.926600 142.000000 11.916375
16.947100 165.000000 12.845233
16.967500 157.000000 12.529964
16.987900 158.000000 12.569805
17.008400 131.000000 11.445523
17.028800 151.000000 12.288206
17.049200 157.000000 12.529964
17.069600 151.000000 12.288206
17.090100 147.000000 12.124356
17.110500 157.000000 12.529964
17.130900 134.000000 11.575837
17.151400 174.000000 13.190906
17.171800 130.000000 11.401754
17.192200 157.000000 12.529964
17.212700 133.000000 11.532563
17.233100 150.000000 12.247449
17.253500 161.000000 12.688578
17.274000 127.000000 11.269428
17.294400 138.000000 11.747340
17.314800 128.000000 11.313708
17.335300 137.000000 11.704700
17.355700 159.000000 12.609520
17.376100 122.000000 11.045361
17.396600 136.000000 11.661904
17.417000 125.000000 11.180340
17.437400 149.000000 12.206556
17.457900 120.000000 10.954451
17.478300 135.000000 11.618950
17.498700 130.000000 11.401754
17.519200 136.000000 11.661904
17.539600 124.000000 11.135529
17.560000 119.000000 10.908712
17.580500 126.000000 11.224972
17.600900 130.000000 11.401754
17.621300 117.000000 10.816654
17.641800 134.000000 11.575837
17.662200 115.000000 10.723805
17.682600 135.000000 11.618950
17.703000 118.000000 10.862780
17.723500 142.000000 11.916375
17.743900 119.000000 10.908712
17.764300 122.000000 11.045361
17.784800 111.000000 10.535654
17.805200 115.000000 10.723805
17.825600 122.000000 11.045361
17.846100 115.000000 10.723805
17.866500 135.000000 11.618950
17.886900 123.000000 11.090537
17.907400 131.000000 11.445523
17.927800 130.000000 11.401754
17.948200 132.000000 11.489125
17.968700 123.000000 11.090537
17.989100 133.000000 11.532563
18.009500 129.000000 11.357817
18.030000 116.000000 10.770330
18.050400 136.000000 11.661904
18.070800 137.000000 11.704700
18.091300 126.000000 11.224972
18.111700 141.000000 11.874342
18.132100 134.000000 11.575837
18.152600 152.000000 12.328828
18.173000 149.000000 12.206556
18.193400 147.000000 12.124356
18.213900 166.000000 12.884099
18.234300 139.000000 11.789826
18.254700 152.000000 12.328828
18.275200 139.000000 11.789826
18.295600 143.000000 11.958261
18.316000 144.000000 12.000000
18.336400 162.000000 12.727922
18.356900 139.000000 11.789826
18.377300 161.000000 12.688578
18.397700 156.000000 12.489996
18.418200 156.000000 12.489996
18.438600 174.000000 13.190906
18.459000 152.000000 12.328828
18.479500 176.000000 13.266499
18.499900 170.000000 13.038405
18.520300 185.000000 13.601471
18.540800 241.000000 15.524175
18.561200 260.000000 16.124515
18.581600 308.000000 17.549929
18.602100 396.000000 19.899749
18.622500 528.000000 22.978251
18.642900 729.000000 27.000000
18.663400 1017.000000 31.890437
18.683800 1284.000000 35.832946
18.704200 1680.000000 40.987803
18.724700 1901.000000 43.600459
18.745100 1723.000000 41.509035
18.765500 1469.000000 38.327536
18.786000 1263.000000 35.538711
18.806400 965.000000 31.064449
18.826800 748.000000 27.349589
18.847300 672.000000 25.922963
18.867700 635.000000 25.199206
18.888100 630.000000 25.099801
18.908500 745.000000 27.294688
18.929000 841.000000 29.000000
18.949400 1097.000000 33.120990
18.969800 1388.000000 37.255872
18.990300 1868.000000 43.220366
19.010700 2257.000000 47.507894
19.031100 2356.000000 48.538644
19.051600 2205.000000 46.957428
19.072000 1621.000000 40.261644
19.092400 1193.000000 34.539832
19.112900 799.000000 28.266588
19.133300 481.000000 21.931712
19.153700 397.000000 19.924859
19.174200 266.000000 16.309506
19.194600 222.000000 14.899664
19.215000 194.000000 13.928388
19.235500 168.000000 12.961481
19.255900 147.000000 12.124356
19.276300 132.000000 11.489125
19.296800 135.000000 11.618950
19.317200 130.000000 11.401754
19.337600 130.000000 11.401754
19.358100 137.000000 11.704700
19.378500 117.000000 10.816654
19.398900 108.000000 10.392305
19.419400 124.000000 11.135529
19.439800 105.000000 10.246951
19.460200 112.000000 10.583005
19.480700 90.000000 9.486833
19.501100 105.000000 10.246951
19.521500 95.000000 9.746794
19.541900 95.000000 9.746794
19.562400 107.000000 10.344080
19.582800 115.000000 10.723805
19.603200 99.000000 9.949874
19.623700 96.000000 9.797959
19.644100 88.000000 9.380832
19.664500 78.000000 8.831761
19.685000 99.000000 9.949874
19.705400 96.000000 9.797959
19.725800 88.000000 9.380832
19.746300 104.000000 10.198039
19.766700 96.000000 9.797959
19.787100 108.000000 10.392305
19.807600 108.000000 10.392305
19.828000 120.000000 10.954451
19.848400 143.000000 11.958261
19.868900 157.000000 12.529964
19.889300 133.000000 11.532563
19.909700 110.000000 10.488088
19.930200 118.000000 10.862780
19.950600 105.000000 10.246951
19.971000 93.000000 9.643651
19.991500 98.000000 9.899495
20.011900 83.000000 9.110434
20.032300 90.000000 9.486833
20.052800 104.000000 10.198039
20.073200 83.000000 9.110434
20.093600 77.000000 8.774964
20.114100 94.000000 9.695360
20.134500 78.000000 8.831761
20.154900 78.000000 8.831761
20.175300 95.000000 9.746794
20.195800 77.000000 8.774964
20.216200 116.000000 10.770330
20.236600 90.000000 9.486833
20.257100 66.000000 8.124038
20.277500 83.000000 9.110434
20.297900 74.000000 8.602325
20.318400 89.000000 9.433981
20.338800 76.000000 8.717798
20.359200 83.000000 9.110434
20.379700 78.000000 8.831761
20.400100 88.000000 9.380832
20.420500 85.000000 9.219544
20.441000 82.000000 9.055385
20.461400 73.000000 8.544004
20.481800 67.000000 8.185353
20.502300 74.000000 8.602325
20.522700 101.000000 10.049876
20.543100 104.000000 10.198039
20.563600 79.000000 8.888194
20.584000 91.000000 9.539392
20.604400 84.000000 9.165151
20.624900 84.000000 9.165151
20.645300 109.000000 10.440307
20.665700 65.000000 8.062258
20.686200 68.000000 8.246211
20.706600 84.000000 9.165151
20.727000 77.000000 8.774964
20.747400 85.000000 9.219544
20.767900 86.000000 9.273618
20.788300 74.000000 8.602325
20.808700 76.000000 8.717798
20.829200 74.000000 8.602325
20.849600 64.000000 8.000000
20.870000 85.000000 9.219544
20.890500 81.000000 9.000000
20.910900 71.000000 8.426150
20.931300 85.000000 9.219544
20.951800 58.000000 7.615773
20.972200 67.000000 8.185353
20.992600 91.000000 9.539392
21.013100 73.000000 8.544004
21.033500 79.000000 8.888194
21.053900 71.000000 8.426150
21.074400 76.000000 8.717798
21.094800 81.000000 9.000000
21.115200 55.000000 7.416198
21.135700 61.000000 7.810250
21.156100 58.000000 7.615773
21.176500 79.000000 8.888194
21.197000 71.000000 8.426150
21.217400 69.000000 8.306624
21.237800 61.000000 7.810250
21.258300 81.000000 9.000000
21.278700 66.000000 8.124038
21.299100 71.000000 8.426150
21.319600 81.000000 9.000000
21.340000 74.000000 8.602325
21.360400 72.000000 8.485281
21.380800 62.000000 7.874008
21.401300 64.000000 8.000000
21.421700 79.000000 8.888194
21.442100 72.000000 8.485281
21.462600 76.000000 8.717798
21.483000 70.000000 8.366600
21.503400 51.000000 7.141428
21.523900 78.000000 8.831761
21.544300 84.000000 9.165151
21.564700 74.000000 8.602325
21.585200 80.000000 8.944272
21.605600 89.000000 9.433981
21.626000 66.000000 8.124038
21.646500 60.000000 7.745967
21.666900 88.000000 9.380832
21.687300 79.000000 8.888194
21.707800 73.000000 8.544004
21.728200 75.000000 8.660254
21.748600 77.000000 8.774964
21.769100 70.000000 8.366600
21.789500 70.000000 8.366600
21.809900 81.000000 9.000000
21.830400 70.000000 8.366600
21.850800 78.000000 8.831761
21.871200 61.000000 7.810250
21.891700 64.000000 8.000000
21.912100 74.000000 8.602325
21.932500 68.000000 8.246211
21.953000 54.000000 7.348469
21.973400 66.000000 8.124038
21.993800 74.000000 8.602325
22.014200 62.000000 7.874008
22.034700 73.000000 8.544004
22.055100 62.000000 7.874008
22.075500 65.000000 8.062258
22.096000 71.000000 8.426150
22.116400 57.000000 7.549834
22.136800 59.000000 7.681146
22.157300 74.000000 8.602325
22.177700 56.000000 7.483315
22.198100 62.000000 7.874008
22.218600 70.000000 8.366600
22.239000 75.000000 8.660254
22.259400 66.000000 8.124038
22.279900 64.000000 8.000000
22.300300 56.000000 7.483315
22.320700 63.000000 7.937254
22.341200 72.000000 8.485281
22.361600 82.000000 9.055385
22.382000 81.000000 9.000000
22.402500 65.000000 8.062258
22.422900 57.000000 7.549834
22.443300 49.000000 7.000000
22.463800 65.000000 8.062258
22.484200 55.000000 7.416198
22.504600 72.000000 8.485281
22.525100 43.000000 6.557439
22.545500 52.000000 7.211103
22.565900 79.000000 8.888194
22.586300 55.000000 7.416198
22.606800 77.000000 8.774964
22.627200 58.000000 7.615773
22.647600 67.000000 8.185353
22.668100 60.000000 7.745967
22.688500 74.000000 8.602325
22.708900 63.000000 7.937254
22.729400 64.000000 8.000000
22.749800 67.000000 8.185353
22.770200 62.000000 7.874008
22.790700 51.000000 7.141428
22.811100 52.000000 7.211103
22.831500 69.000000 8.306624
22.852000 68.000000 8.246211
22.872400 48.000000 6.928203
22.892800 77.000000 8.774964
22.913300 62.000000 7.874008
22.933700 75.000000 8.660254
22.954100 69.000000 8.306624
22.974600 61.000000 7.810250
22.995000 59.000000 7.681146
23.015400 42.000000 6.480741
23.035900 68.000000 8.246211
23.056300 68.000000 8.246211
23.076700 57.000000 7.549834
23.097200 54.000000 7.348469
23.117600 64.000000 8.000000
23.138000 45.000000 6.708204
23.158500 70.000000 8.366600
23.178900 57.000000 7.549834
23.199300 59.000000 7.681146
23.219700 46.000000 6.782330
23.240200 56.000000 7.483315
23.260600 70.000000 8.366600
23.281000 67.000000 8.185353
23.301500 58.000000 7.615773
23.321900 74.000000 8.602325
23.342300 61.000000 7.810250
23.362800 68.000000 8.246211
23.383200 59.000000 7.681146
23.403600 65.000000 8.062258
23.424100 73.000000 8.544004
23.444500 71.000000 8.426150
23.464900 70.000000 8.366600
23.485400 72.000000 8.485281
23.505800 58.000000 7.615773
23.526200 68.000000 8.246211
23.546700 57.000000 7.549834
23.567100 59.000000 7.681146
23.587500 68.000000 8.246211
23.608000 63.000000 7.937254
23.628400 68.000000 8.246211
23.648800 62.000000 7.874008
23.669300 63.000000 7.937254
23.689700 54.000000 7.348469
23.710100 58.000000 7.615773
23.730600 57.000000 7.549834
23.751000 61.000000 7.810250
23.771400 52.000000 7.211103
23.791900 63.000000 7.937254
23.812300 57.000000 7.549834
23.832700 66.000000 8.124038
23.853100 70.000000 8.366600
23.873600 64.000000 8.000000
23.894000 69.000000 8.306624
23.914400 59.000000 7.681146
23.934900 72.000000 8.485281
23.955300 64.000000 8.000000
23.975700 64.000000 8.000000
23.996200 82.000000 9.055385
24.016600 67.000000 8.185353
24.037000 78.000000 8.831761
24.057500 82.000000 9.055385
24.077900 55.000000 7.416198
24.098300 69.000000 8.306624
24.118800 61.000000 7.810250
24.139200 77.000000 8.774964
24.159600 74.000000 8.602325
24.180100 106.000000 10.295630
24.200500 86.000000 9.273618
24.220900 79.000000 8.888194
24.241400 90.000000 9.486833
24.261800 63.000000 7.937254
24.282200 69.000000 8.306624
24.302700 63.000000 7.937254
24.323100 68.000000 8.246211
24.343500 64.000000 8.000000
24.364000 63.000000 7.937254
24.384400 78.000000 8.831761
24.404800 57.000000 7.549834
24.425200 63.000000 7.937254
24.445700 73.000000 8.544004
24.466100 64.000000 8.000000
24.486500 59.000000 7.681146
24.507000 66.000000 8.124038
24.527400 49.000000 7.000000
24.547800 58.000000 7.615773
24.568300 62.000000 7.874008
24.588700 73.000000 8.544004
24.609100 65.000000 8.062258
24.629600 67.000000 8.185353
24.650000 60.000000 7.745967
24.670400 52.000000 7.211103
24.690900 55.000000 7.416198
24.711300 52.000000 7.211103
24.731700 54.000000 7.348469
24.752200 49.000000 7.000000
24.772600 59.000000 7.681146
24.793000 53.000000 7.280110
24.813500 48.000000 6.928203
24.833900 52.000000 7.211103
24.854300 56.000000 7.483315
24.874800 48.000000 6.928203
24.895200 52.000000 7.211103
24.915600 42.000000 6.480741
24.936100 51.000000 7.141428
24.956500 50.000000 7.071068
24.976900 50.000000 7.071068
24.997400 53.000000 7.280110
25.017800 66.000000 8.124038
25.038200 55.000000 7.416198
25.058600 51.000000 7.141428
25.079100 76.000000 8.717798
25.099500 47.000000 6.855655
25.119900 55.000000 7.416198
25.140400 49.000000 7.000000
25.160800 58.000000 7.615773
25.181200 47.000000 6.855655
25.201700 66.000000 8.124038
25.222100 68.000000 8.246211
25.242500 41.000000 6.403124
25.263000 58.000000 7.615773
25.283400 60.000000 7.745967
25.303800 63.000000 7.937254
25.324300 66.000000 8.124038
25.344700 64.000000 8.000000
25.365100 61.000000 7.810250
25.385600 55.000000 7.416198
25.406000 50.000000 7.071068
25.426400 57.000000 7.549834
25.446900 59.000000 7.681146
25.467300 67.000000 8.185353
25.487700 51.000000 7.141428
25.508200 62.000000 7.874008
25.528600 57.000000 7.549834
25.549000 62.000000 7.874008
25.569500 56.000000 7.483315
25.589900 58.000000 7.615773
25.610300 50.000000 7.071068
25.630800 61.000000 7.810250
25.651200 53.000000 7.280110
25.671600 60.000000 7.745967
25.692000 76.000000 8.717798
25.712500 77.000000 8.774964
25.732900 68.000000 8.246211
25.753300 102.000000 10.099505
25.773800 90.000000 9.486833
25.794200 79.000000 8.888194
25.814600 116.000000 10.770330
25.835100 123.000000 11.090537
25.855500 142.000000 11.916375
25.875900 203.000000 14.247807
25.896400 217.000000 14.730920
25.916800 266.000000 16.309506
25.937200 225.000000 15.000000
25.957700 222.000000 14.899664
25.978100 198.000000 14.071247
25.998500 145.000000 12.041595
26.019000 115.000000 10.723805
26.039400 81.000000 9.000000
26.059800 89.000000 9.433981
26.080300 76.000000 8.717798
26.100700 86.000000 9.273618
26.121100 79.000000 8.888194
26.141600 72.000000 8.485281
26.162000 75.000000 8.660254
26.182400 69.000000 8.306624
26.202900 87.000000 9.327379
26.223300 83.000000 9.110434
26.243700 80.000000 8.944272
26.264100 86.000000 9.273618
26.284600 79.000000 8.888194
26.305000 81.000000 9.000000
26.325400 78.000000 8.831761
26.345900 75.000000 8.660254
26.366300 67.000000 8.185353
26.386700 58.000000 7.615773
26.407200 56.000000 7.483315
26.427600 72.000000 8.485281
26.448000 72.000000 8.485281
26.468500 85.000000 9.219544
26.488900 78.000000 8.831761
26.509300 85.000000 9.219544
26.529800 93.000000 9.643651
26.550200 75.000000 8.660254
26.570600 76.000000 8.717798
26.591100 69.000000 8.306624
26.611500 71.000000 8.426150
26.631900 70.000000 8.366600
26.652400 73.000000 8.544004
26.672800 60.000000 7.745967
26.693200 51.000000 7.141428
26.713700 76.000000 8.717798
26.734100 58.000000 7.615773
26.754500 68.000000 8.246211
26.775000 62.000000 7.874008
26.795400 61.000000 7.810250
26.815800 55.000000 7.416198
26.836300 52.000000 7.211103
26.856700 51.000000 7.141428
26.877100 54.000000 7.348469
26.897500 54.000000 7.348469
26.918000 57.000000 7.549834
26.938400 49.000000 7.000000
26.958800 52.000000 7.211103
26.979300 57.000000 7.549834
26.999700 65.000000 8.062258
27.020100 49.000000 7.000000
27.040600 53.000000 7.280110
27.061000 50.000000 7.071068
27.081400 68.000000 8.246211
27.101900 66.000000 8.124038
27.122300 61.000000 7.810250
27.142700 49.000000 7.000000
27.163200 61.000000 7.810250
27.183600 67.000000 8.185353
27.204000 55.000000 7.416198
27.224500 79.000000 8.888194
27.244900 65.000000 8.062258
27.265300 61.000000 7.810250
27.285800 64.000000 8.000000
27.306200 79.000000 8.888194
27.326600 68.000000 8.246211
27.347100 62.000000 7.874008
27.367500 54.000000 7.348469
27.387900 65.000000 8.062258
27.408400 54.000000 7.348469
27.428800 68.000000 8.246211
27.449200 68.000000 8.246211
27.469700 52.000000 7.211103
27.490100 70.000000 8.366600
27.510500 74.000000 8.602325
27.530900 64.000000 8.000000
27.551400 58.000000 7.615773
27.571800 60.000000 7.745967
27.592200 65.000000 8.062258
27.612700 58.000000 7.615773
27.633100 62.000000 7.874008
27.653500 84.000000 9.165151
27.674000 73.000000 8.544004
27.694400 65.000000 8.062258
27.714800 92.000000 9.591663
27.735300 87.000000 9.327379
27.755700 99.000000 9.949874
27.776100 121.000000 11.000000
27.796600 129.000000 11.357817
27.817000 127.000000 11.269428
27.837400 150.000000 12.247449
27.857900 151.000000 12.288206
27.878300 140.000000 11.832160
27.898700 148.000000 12.165525
27.919200 167.000000 12.922848
27.939600 141.000000 11.874342
27.960000 169.000000 13.000000
27.980500 150.000000 12.247449
28.000900 167.000000 12.922848
28.021300 145.000000 12.041595
28.041800 142.000000 11.916375
28.062200 154.000000 12.409674
28.082600 137.000000 11.704700
28.103000 141.000000 11.874342
28.123500 177.000000 13.304135
28.143900 191.000000 13.820275
28.164300 189.000000 13.747727
28.184800 201.000000 14.177447
28.205200 213.000000 14.594520
28.225600 217.000000 14.730920
28.246100 218.000000 14.764823
28.266500 241.000000 15.524175
28.286900 249.000000 15.779734
28.307400 314.000000 17.720045
28.327800 405.000000 20.124612
28.348200 539.000000 23.216374
28.368700 725.000000 26.925824
28.389100 893.000000 29.883106
28.409500 1042.000000 32.280025
28.430000 1160.000000 34.058773
28.450400 1088.000000 32.984845
28.470800 918.000000 30.298515
28.491300 824.000000 28.705400
28.511700 756.000000 27.495454
28.532100 682.000000 26.115130
28.552600 616.000000 24.819347
28.573000 663.000000 25.748786
28.593400 824.000000 28.705400
28.613900 874.000000 29.563491
28.634300 1077.000000 32.817678
28.654700 1104.000000 33.226495
28.675200 1088.000000 32.984845
28.695600 952.000000 30.854497
28.716000 959.000000 30.967725
28.736400 1020.000000 31.937439
28.756900 1093.000000 33.060551
28.777300 1426.000000 37.762415
28.797700 1879.000000 43.347434
28.818200 2837.000000 53.263496
28.838600 3854.000000 62.080593
28.859000 4643.000000 68.139563
28.879500 4517.000000 67.208630
28.899900 4584.000000 67.705244
28.920300 4730.000000 68.774995
28.940800 5198.000000 72.097157
28.961200 5225.000000 72.284161
28.981600 5634.000000 75.059976
29.002100 5162.000000 71.847060
29.022500 4390.000000 66.257075
29.042900 3485.000000 59.033889
29.063400 2874.000000 53.609701
29.083800 2248.000000 47.413078
29.104200 1487.000000 38.561639
29.124700 964.000000 31.048349
29.145100 613.000000 24.758837
29.165500 470.000000 21.679483
29.186000 377.000000 19.416488
29.206400 305.000000 17.464249
29.226800 266.000000 16.309506
29.247300 231.000000 15.198684
29.267700 236.000000 15.362291
29.288100 255.000000 15.968719
29.308600 247.000000 15.716234
29.329000 196.000000 14.000000
29.349400 164.000000 12.806248
29.369800 146.000000 12.083046
29.390300 151.000000 12.288206
29.410700 137.000000 11.704700
29.431100 116.000000 10.770330
29.451600 110.000000 10.488088
29.472000 84.000000 9.165151
29.492400 85.000000 9.219544
29.512900 87.000000 9.327379
29.533300 97.000000 9.848858
29.553700 88.000000 9.380832
29.574200 114.000000 10.677078
29.594600 85.000000 9.219544
29.615000 85.000000 9.219544
29.635500 93.000000 9.643651
29.655900 90.000000 9.486833
29.676300 70.000000 8.366600
29.696800 69.000000 8.306624
29.717200 64.000000 8.000000
29.737600 100.000000 10.000000
29.758100 97.000000 9.848858
29.778500 101.000000 10.049876
29.798900 76.000000 8.717798
29.819400 75.000000 8.660254
29.839800 85.000000 9.219544
29.860200 82.000000 9.055385
29.880700 81.000000 9.000000
29.901100 89.000000 9.433981
29.921500 80.000000 8.944272
29.941900 78.000000 8.831761
29.962400 80.000000 8.944272
29.982800 86.000000 9.273618
30.003200 80.000000 8.944272
30.023700 78.000000 8.831761
30.044100 78.000000 8.831761
30.064500 72.000000 8.485281
30.085000 75.000000 8.660254
30.105400 80.000000 8.944272
30.125800 73.000000 8.544004
30.146300 76.000000 8.717798
30.166700 85.000000 9.219544
30.187100 52.000000 7.211103
30.207600 74.000000 8.602325
30.228000 93.000000 9.643651
30.248400 83.000000 9.110434
30.268900 73.000000 8.544004
30.289300 99.000000 9.949874
30.309700 88.000000 9.380832
30.330200 81.000000 9.000000
30.350600 99.000000 9.949874
30.371000 98.000000 9.899495
30.391500 113.000000 10.630146
30.411900 112.000000 10.583005
30.432300 126.000000 11.224972
30.452800 159.000000 12.609520
30.473200 203.000000 14.247807
30.493600 267.000000 16.340135
30.514100 526.000000 22.934690
30.534500 805.000000 28.372522
30.554900 1268.000000 35.608988
30.575300 1497.000000 38.691084
30.595800 1343.000000 36.646964
30.616200 1060.000000 32.557641
30.636600 990.000000 31.464265
30.657100 878.000000 29.631065
30.677500 675.000000 25.980762
30.697900 403.000000 20.074860
30.718400 277.000000 16.643317
30.738800 198.000000 14.071247
30.759200 160.000000 12.649111
30.779700 132.000000 11.489125
30.800100 109.000000 10.440307
30.820500 90.000000 9.486833
30.841000 95.000000 9.746794
30.861400 103.000000 10.148892
30.881800 80.000000 8.944272
30.902300 67.000000 8.185353
30.922700 71.000000 8.426150
30.943100 76.000000 8.717798
30.963600 75.000000 8.660254
30.984000 59.000000 7.681146
31.004400 62.000000 7.874008
31.024900 57.000000 7.549834
31.045300 61.000000 7.810250
31.065700 61.000000 7.810250
31.086200 63.000000 7.937254
31.106600 61.000000 7.810250
31.127000 56.000000 7.483315
31.147500 52.000000 7.211103
31.167900 55.000000 7.416198
31.188300 55.000000 7.416198
31.208700 61.000000 7.810250
31.229200 59.000000 7.681146
31.249600 49.000000 7.000000
31.270000 72.000000 8.485281
31.290500 62.000000 7.874008
31.310900 55.000000 7.416198
31.331300 63.000000 7.937254
31.351800 62.000000 7.874008
31.372200 78.000000 8.831761
31.392600 67.000000 8.185353
31.413100 81.000000 9.000000
31.433500 83.000000 9.110434
31.453900 87.000000 9.327379
31.474400 64.000000 8.000000
31.494800 69.000000 8.306624
31.515200 72.000000 8.485281
31.535700 66.000000 8.124038
31.556100 65.000000 8.062258
31.576500 54.000000 7.348469
31.597000 51.000000 7.141428
31.617400 62.000000 7.874008
31.637800 40.000000 6.324555
31.658300 56.000000 7.483315
31.678700 63.000000 7.937254
31.699100 62.000000 7.874008
31.719600 54.000000 7.348469
31.740000 59.000000 7.681146
31.760400 55.000000 7.416198
31.780800 61.000000 7.810250
31.801300 77.000000 8.774964
31.821700 64.000000 8.000000
31.842100 64.000000 8.000000
31.862600 84.000000 9.165151
31.883000 93.000000 9.643651
31.903400 75.000000 8.660254
31.923900 97.000000 9.848858
31.944300 87.000000 9.327379
31.964700 90.000000 9.486833
31.985200 81.000000 9.000000
32.005600 106.000000 10.295630
32.026000 101.000000 10.049876
32.046500 112.000000 10.583005
32.066900 87.000000 9.327379
32.087300 93.000000 9.643651
32.107800 65.000000 8.062258
32.128200 76.000000 8.717798
32.148600 63.000000 7.937254
32.169100 60.000000 7.745967
32.189500 68.000000 8.246211
32.209900 44.000000 6.633250
32.230400 68.000000 8.246211
32.250800 68.000000 8.246211
32.271200 73.000000 8.544004
32.291700 79.000000 8.888194
32.312100 54.000000 7.348469
32.332500 76.000000 8.717798
32.353000 67.000000 8.185353
32.373400 61.000000 7.810250
32.393800 79.000000 8.888194
32.414200 75.000000 8.660254
32.434700 70.000000 8.366600
32.455100 82.000000 9.055385
32.475500 101.000000 10.049876
32.496000 106.000000 10.295630
32.516400 145.000000 12.041595
32.536800 168.000000 12.961481
32.557300 173.000000 13.152946
32.577700 155.000000 12.449900
32.598100 149.000000 12.206556
32.618600 136.000000 11.661904
32.639000 116.000000 10.770330
32.659400 112.000000 10.583005
32.679900 70.000000 8.366600
32.700300 74.000000 8.602325
32.720700 62.000000 7.874008
32.741200 52.000000 7.211103
32.761600 58.000000 7.615773
32.782000 58.000000 7.615773
32.802500 45.000000 6.708204
32.822900 53.000000 7.280110
32.843300 55.000000 7.416198
32.863800 67.000000 8.185353
32.884200 51.000000 7.141428
32.904600 51.000000 7.141428
32.925100 40.000000 6.324555
32.945500 44.000000 6.633250
32.965900 53.000000 7.280110
32.986400 53.000000 7.280110
33.006800 37.000000 6.082763
33.027200 40.000000 6.324555
33.047600 51.000000 7.141428
33.068100 40.000000 6.324555
33.088500 42.000000 6.480741
33.108900 53.000000 7.280110
33.129400 44.000000 6.633250
33.149800 56.000000 7.483315
33.170200 52.000000 7.211103
33.190700 63.000000 7.937254
33.211100 54.000000 7.348469
33.231500 61.000000 7.810250
33.252000 49.000000 7.000000
33.272400 63.000000 7.937254
33.292800 64.000000 8.000000
33.313300 60.000000 7.745967
33.333700 81.000000 9.000000
33.354100 76.000000 8.717798
33.374600 102.000000 10.099505
33.395000 87.000000 9.327379
33.415400 115.000000 10.723805
33.435900 113.000000 10.630146
33.456300 148.000000 12.165525
33.476700 175.000000 13.228757
33.497200 171.000000 13.076697
33.517600 199.000000 14.106736
33.538000 170.000000 13.038405
33.558500 167.000000 12.922848
33.578900 154.000000 12.409674
33.599300 126.000000 11.224972
33.619700 105.000000 10.246951
33.640200 112.000000 10.583005
33.660600 80.000000 8.944272
33.681000 62.000000 7.874008
33.701500 56.000000 7.483315
33.721900 52.000000 7.211103
33.742300 53.000000 7.280110
33.762800 59.000000 7.681146
33.783200 64.000000 8.000000
33.803600 38.000000 6.164414
33.824100 50.000000 7.071068
33.844500 52.000000 7.211103
33.864900 45.000000 6.708204
33.885400 52.000000 7.211103
33.905800 47.000000 6.855655
33.926200 44.000000 6.633250
33.946700 52.000000 7.211103
33.967100 49.000000 7.000000
33.987500 54.000000 7.348469
34.008000 43.000000 6.557439
34.028400 43.000000 6.557439
34.048800 42.000000 6.480741
34.069300 56.000000 7.483315
34.089700 61.000000 7.810250
34.110100 57.000000 7.549834
34.130600 51.000000 7.141428
34.151000 60.000000 7.745967
34.171400 58.000000 7.615773
34.191900 60.000000 7.745967
34.212300 66.000000 8.124038
34.232700 62.000000 7.874008
34.253100 59.000000 7.681146
34.273600 70.000000 8.366600
34.294000 69.000000 8.306624
34.314400 67.000000 8.185353
34.334900 83.000000 9.110434
34.355300 88.000000 9.380832
34.375700 114.000000 10.677078
34.396200 98.000000 9.899495
34.416600 144.000000 12.000000
34.437000 155.000000 12.449900
34.457500 208.000000 14.422205
34.477900 280.000000 16.733201
34.498300 372.000000 19.287302
34.518800 499.000000 22.338308
34.539200 605.000000 24.596748
34.559600 608.000000 24.657656
34.580100 617.000000 24.839485
34.600500 558.000000 23.622024
34.620900 534.000000 23.108440
34.641400 488.000000 22.090722
34.661800 411.000000 20.273135
34.682200 378.000000 19.442222
34.702700 277.000000 16.643317
34.723100 221.000000 14.866069
34.743500 187.000000 13.674794
34.764000 169.000000 13.000000
34.784400 163.000000 12.767145
34.804800 126.000000 11.224972
34.825300 117.000000 10.816654
34.845700 108.000000 10.392305
34.866100 118.000000 10.862780
34.886500 94.000000 9.695360
34.907000 112.000000 10.583005
34.927400 92.000000 9.591663
34.947800 107.000000 10.344080
34.968300 121.000000 11.000000
34.988700 114.000000 10.677078
35.009100 106.000000 10.295630
35.029600 115.000000 10.723805
35.050000 118.000000 10.862780
35.070400 127.000000 11.269428
35.090900 132.000000 11.489125
35.111300 151.000000 12.288206
35.131700 165.000000 12.845233
35.152200 213.000000 14.594520
35.172600 310.000000 17.606817
35.193000 383.000000 19.570386
35.213500 520.000000 22.803509
35.233900 608.000000 24.657656
35.254300 694.000000 26.343880
35.274800 666.000000 25.806976
35.295200 545.000000 23.345235
35.315600 482.000000 21.954498
35.336100 476.000000 21.817424
35.356500 395.000000 19.874607
35.376900 297.000000 17.233688
35.397400 216.000000 14.696938
35.417800 149.000000 12.206556
35.438200 133.000000 11.532563
35.458600 97.000000 9.848858
35.479100 101.000000 10.049876
35.499500 62.000000 7.874008
35.519900 76.000000 8.717798
35.540400 61.000000 7.810250
35.560800 67.000000 8.185353
35.581200 48.000000 6.928203
35.601700 46.000000 6.782330
35.622100 46.000000 6.782330
35.642500 38.000000 6.164414
35.663000 43.000000 6.557439
35.683400 55.000000 7.416198
35.703800 38.000000 6.164414
35.724300 45.000000 6.708204
35.744700 37.000000 6.082763
35.765100 51.000000 7.141428
35.785600 48.000000 6.928203
35.806000 33.000000 5.744563
35.826400 36.000000 6.000000
35.846900 42.000000 6.480741
35.867300 39.000000 6.244998
35.887700 34.000000 5.830952
35.908200 43.000000 6.557439
35.928600 43.000000 6.557439
35.949000 31.000000 5.567764
35.969500 43.000000 6.557439
35.989900 35.000000 5.916080
36.010300 36.000000 6.000000
36.030800 38.000000 6.164414
36.051200 39.000000 6.244998
36.071600 30.000000 5.477226
36.092000 34.000000 5.830952
36.112500 31.000000 5.567764
36.132900 44.000000 6.633250
36.153300 30.000000 5.477226
36.173800 36.000000 6.000000
36.194200 30.000000 5.477226
36.214600 43.000000 6.557439
36.235100 37.000000 6.082763
36.255500 51.000000 7.141428
36.275900 46.000000 6.782330
36.296400 32.000000 5.656854
36.316800 33.000000 5.744563
36.337200 33.000000 5.744563
36.357700 32.000000 5.656854
36.378100 27.000000 5.196152
36.398500 40.000000 6.324555
36.419000 44.000000 6.633250
36.439400 46.000000 6.782330
36.459800 45.000000 6.708204
36.480300 47.000000 6.855655
36.500700 45.000000 6.708204
36.521100 38.000000 6.164414
36.541600 42.000000 6.480741
36.562000 42.000000 6.480741
36.582400 45.000000 6.708204
36.602900 56.000000 7.483315
36.623300 48.000000 6.928203
36.643700 49.000000 7.000000
36.664200 48.000000 6.928203
36.684600 57.000000 7.549834
36.705000 51.000000 7.141428
36.725400 37.000000 6.082763
36.745900 40.000000 6.324555
36.766300 43.000000 6.557439
36.786700 53.000000 7.280110
36.807200 38.000000 6.164414
36.827600 51.000000 7.141428
36.848000 38.000000 6.164414
36.868500 29.000000 5.385165
36.888900 52.000000 7.211103
36.909300 49.000000 7.000000
36.929800 39.000000 6.244998
36.950200 48.000000 6.928203
36.970600 39.000000 6.244998
36.991100 43.000000 6.557439
37.011500 45.000000 6.708204
37.031900 45.000000 6.708204
37.052400 36.000000 6.000000
37.072800 51.000000 7.141428
37.093200 48.000000 6.928203
37.113700 31.000000 5.567764
37.134100 41.000000 6.403124
37.154500 42.000000 6.480741
37.175000 32.000000 5.656854
37.195400 41.000000 6.403124
37.215800 36.000000 6.000000
37.236300 34.000000 5.830952
37.256700 28.000000 5.291503
37.277100 45.000000 6.708204
37.297500 34.000000 5.830952
37.318000 35.000000 5.916080
37.338400 29.000000 5.385165
37.358800 31.000000 5.567764
37.379300 42.000000 6.480741
37.399700 34.000000 5.830952
37.420100 39.000000 6.244998
37.440600 32.000000 5.656854
37.461000 39.000000 6.244998
37.481400 39.000000 6.244998
37.501900 42.000000 6.480741
37.522300 31.000000 5.567764
37.542700 38.000000 6.164414
37.563200 35.000000 5.916080
37.583600 46.000000 6.782330
37.604000 31.000000 5.567764
37.624500 33.000000 5.744563
37.644900 45.000000 6.708204
37.665300 39.000000 6.244998
37.685800 39.000000 6.244998
37.706200 45.000000 6.708204
37.726600 39.000000 6.244998
37.747100 53.000000 7.280110
37.767500 38.000000 6.164414
37.787900 34.000000 5.830952
37.808400 41.000000 6.403124
37.828800 45.000000 6.708204
37.849200 51.000000 7.141428
37.869700 54.000000 7.348469
37.890100 57.000000 7.549834
37.910500 54.000000 7.348469
37.930900 70.000000 8.366600
37.951400 76.000000 8.717798
37.971800 53.000000 7.280110
37.992200 53.000000 7.280110
38.012700 61.000000 7.810250
38.033100 43.000000 6.557439
38.053500 60.000000 7.745967
38.074000 54.000000 7.348469
38.094400 48.000000 6.928203
38.114800 39.000000 6.244998
38.135300 41.000000 6.403124
38.155700 35.000000 5.916080
38.176100 42.000000 6.480741
38.196600 42.000000 6.480741
38.217000 43.000000 6.557439
38.237400 40.000000 6.324555
38.257900 37.000000 6.082763
38.278300 38.000000 6.164414
38.298700 46.000000 6.782330
38.319200 38.000000 6.164414
38.339600 37.000000 6.082763
38.360000 32.000000 5.656854
38.380500 47.000000 6.855655
38.400900 36.000000 6.000000
38.421300 29.000000 5.385165
38.441800 28.000000 5.291503
38.462200 28.000000 5.291503
38.482600 43.000000 6.557439
38.503100 40.000000 6.324555
38.523500 34.000000 5.830952
38.543900 39.000000 6.244998
38.564300 34.000000 5.830952
38.584800 29.000000 5.385165
38.605200 32.000000 5.656854
38.625600 37.000000 6.082763
38.646100 31.000000 5.567764
38.666500 44.000000 6.633250
38.686900 36.000000 6.000000
38.707400 44.000000 6.633250
38.727800 40.000000 6.324555
38.748200 31.000000 5.567764
38.768700 43.000000 6.557439
38.789100 40.000000 6.324555
38.809500 36.000000 6.000000
38.830000 30.000000 5.477226
38.850400 37.000000 6.082763
38.870800 48.000000 6.928203
38.891300 32.000000 5.656854
38.911700 40.000000 6.324555
38.932100 47.000000 6.855655
38.952600 43.000000 6.557439
38.973000 46.000000 6.782330
38.993400 45.000000 6.708204
39.013900 49.000000 7.000000
39.034300 41.000000 6.403124
39.054700 56.000000 7.483315
39.075200 47.000000 6.855655
39.095600 47.000000 6.855655
39.116000 47.000000 6.855655
39.136400 45.000000 6.708204
39.156900 45.000000 6.708204
39.177300 48.000000 6.928203
39.197700 46.000000 6.782330
39.218200 56.000000 7.483315
39.238600 53.000000 7.280110
39.259000 55.000000 7.416198
39.279500 52.000000 7.211103
39.299900 56.000000 7.483315
39.320300 66.000000 8.124038
39.340800 69.000000 8.306624
39.361200 71.000000 8.426150
39.381600 79.000000 8.888194
39.402100 83.000000 9.110434
39.422500 123.000000 11.090537
39.442900 140.000000 11.832160
39.463400 197.000000 14.035669
39.483800 242.000000 15.556349
39.504200 218.000000 14.764823
39.524700 228.000000 15.099669
39.545100 213.000000 14.594520
39.565500 245.000000 15.652476
39.586000 273.000000 16.522712
39.606400 286.000000 16.911535
39.626800 274.000000 16.552945
39.647300 233.000000 15.264338
39.667700 216.000000 14.696938
39.688100 193.000000 13.892444
39.708600 206.000000 14.352700
39.729000 213.000000 14.594520
39.749400 237.000000 15.394804
39.769800 293.000000 17.117243
39.790300 369.000000 19.209373
39.810700 496.000000 22.271057
39.831100 491.000000 22.158520
39.851600 461.000000 21.470911
39.872000 386.000000 19.646883
39.892400 397.000000 19.924859
39.912900 386.000000 19.646883
39.933300 406.000000 20.149442
39.953700 349.000000 18.681542
39.974200 333.000000 18.248288
39.994600 309.000000 17.578396
40.015000 308.000000 17.549929
40.035500 325.000000 18.027756
40.055900 382.000000 19.544820
40.076300 468.000000 21.633308
40.096800 462.000000 21.494185
40.117200 412.000000 20.297783
40.137600 320.000000 17.888544
40.158100 291.000000 17.058722
40.178500 303.000000 17.406895
40.198900 314.000000 17.720045
40.219400 263.000000 16.217275
40.239800 221.000000 14.866069
40.260200 214.000000 14.628739
40.280700 222.000000 14.899664
40.301100 206.000000 14.352700
40.321500 220.000000 14.832397
40.342000 170.000000 13.038405
40.362400 166.000000 12.884099
40.382800 151.000000 12.288206
40.403200 154.000000 12.409674
40.423700 152.000000 12.328828
40.444100 145.000000 12.041595
40.464500 146.000000 12.083046
40.485000 172.000000 13.114877
40.505400 198.000000 14.071247
40.525800 243.000000 15.588457
40.546300 282.000000 16.792856
40.566700 313.000000 17.691806
40.587100 315.000000 17.748239
40.607600 338.000000 18.384776
40.628000 357.000000 18.894444
40.648400 334.000000 18.275667
40.668900 326.000000 18.055470
40.689300 297.000000 17.233688
40.709700 266.000000 16.309506
40.730200 251.000000 15.842980
40.750600 249.000000 15.779734
40.771000 197.000000 14.035669
40.791500 170.000000 13.038405
40.811900 153.000000 12.369317
40.832300 126.000000 11.224972
40.852800 120.000000 10.954451
40.873200 99.000000 9.949874
40.893600 98.000000 9.899495
40.914100 104.000000 10.198039
40.934500 115.000000 10.723805
40.954900 90.000000 9.486833
40.975300 96.000000 9.797959
40.995800 83.000000 9.110434
41.016200 71.000000 8.426150
41.036600 89.000000 9.433981
41.057100 75.000000 8.660254
41.077500 86.000000 9.273618
41.097900 70.000000 8.366600
41.118400 66.000000 8.124038
41.138800 62.000000 7.874008
41.159200 60.000000 7.745967
41.179700 62.000000 7.874008
41.200100 58.000000 7.615773
41.220500 66.000000 8.124038
41.241000 71.000000 8.426150
41.261400 68.000000 8.246211
41.281800 75.000000 8.660254
41.302300 52.000000 7.211103
41.322700 59.000000 7.681146
41.343100 63.000000 7.937254
41.363600 67.000000 8.185353
41.384000 67.000000 8.185353
41.404400 50.000000 7.071068
41.424900 52.000000 7.211103
41.445300 59.000000 7.681146
41.465700 57.000000 7.549834
41.486200 59.000000 7.681146
41.506600 49.000000 7.000000
41.527000 54.000000 7.348469
41.547500 45.000000 6.708204
41.567900 53.000000 7.280110
41.588300 64.000000 8.000000
41.608700 55.000000 7.416198
41.629200 51.000000 7.141428
41.649600 70.000000 8.366600
41.670000 61.000000 7.810250
41.690500 59.000000 7.681146
41.710900 56.000000 7.483315
41.731300 45.000000 6.708204
41.751800 47.000000 6.855655
41.772200 61.000000 7.810250
41.792600 47.000000 6.855655
41.813100 46.000000 6.782330
41.833500 47.000000 6.855655
41.853900 41.000000 6.403124
41.874400 47.000000 6.855655
41.894800 71.000000 8.426150
41.915200 47.000000 6.855655
41.935700 62.000000 7.874008
41.956100 48.000000 6.928203
41.976500 46.000000 6.782330
41.997000 48.000000 6.928203
42.017400 53.000000 7.280110
42.037800 60.000000 7.745967
42.058300 42.000000 6.480741
42.078700 67.000000 8.185353
42.099100 60.000000 7.745967
42.119600 50.000000 7.071068
42.140000 55.000000 7.416198
42.160400 59.000000 7.681146
42.180900 55.000000 7.416198
42.201300 63.000000 7.937254
42.221700 52.000000 7.211103
42.242100 63.000000 7.937254
42.262600 74.000000 8.602325
42.283000 87.000000 9.327379
42.303400 106.000000 10.295630
42.323900 140.000000 11.832160
42.344300 174.000000 13.190906
42.364700 180.000000 13.416408
42.385200 203.000000 14.247807
42.405600 200.000000 14.142136
42.426000 225.000000 15.000000
42.446500 223.000000 14.933185
42.466900 324.000000 18.000000
42.487300 454.000000 21.307276
42.507800 449.000000 21.189620
42.528200 430.000000 20.736441
42.548600 347.000000 18.627936
42.569100 326.000000 18.055470
42.589500 260.000000 16.124515
42.609900 261.000000 16.155494
42.630400 262.000000 16.186414
42.650800 202.000000 14.212670
42.671200 166.000000 12.884099
42.691700 118.000000 10.862780
42.712100 106.000000 10.295630
42.732500 81.000000 9.000000
42.753000 55.000000 7.416198
42.773400 72.000000 8.485281
42.793800 79.000000 8.888194
42.814200 39.000000 6.244998
42.834700 61.000000 7.810250
42.855100 50.000000 7.071068
42.875500 46.000000 6.782330
42.896000 43.000000 6.557439
42.916400 54.000000 7.348469
42.936800 41.000000 6.403124
42.957300 40.000000 6.324555
42.977700 39.000000 6.244998
42.998100 36.000000 6.000000
43.018600 61.000000 7.810250
43.039000 48.000000 6.928203
43.059400 46.000000 6.782330
43.079900 39.000000 6.244998
43.100300 34.000000 5.830952
43.120700 34.000000 5.830952
43.141200 52.000000 7.211103
43.161600 37.000000 6.082763
43.182000 44.000000 6.633250
43.202500 43.000000 6.557439
43.222900 45.000000 6.708204
43.243300 32.000000 5.656854
43.263800 36.000000 6.000000
43.284200 34.000000 5.830952
43.304600 50.000000 7.071068
43.325100 36.000000 6.000000
43.345500 39.000000 6.244998
43.365900 39.000000 6.244998
43.386400 50.000000 7.071068
43.406800 44.000000 6.633250
43.427200 31.000000 5.567764
43.447600 32.000000 5.656854
43.468100 42.000000 6.480741
43.488500 39.000000 6.244998
43.508900 35.000000 5.916080
43.529400 37.000000 6.082763
43.549800 32.000000 5.656854
43.570200 33.000000 5.744563
43.590700 38.000000 6.164414
43.611100 34.000000 5.830952
43.631500 31.000000 5.567764
43.652000 29.000000 5.385165
43.672400 47.000000 6.855655
43.692800 44.000000 6.633250
43.713300 33.000000 5.744563
43.733700 44.000000 6.633250
43.754100 52.000000 7.211103
43.774600 33.000000 5.744563
43.795000 33.000000 5.744563
43.815400 35.000000 5.916080
43.835900 37.000000 6.082763
43.856300 36.000000 6.000000
43.876700 34.000000 5.830952
43.897200 38.000000 6.164414
43.917600 29.000000 5.385165
43.938000 45.000000 6.708204
43.958500 30.000000 5.477226
43.978900 44.000000 6.633250
43.999300 35.000000 5.916080
44.019800 29.000000 5.385165
44.040200 37.000000 6.082763
44.060600 36.000000 6.000000
44.081000 25.000000 5.000000
44.101500 37.000000 6.082763
44.121900 43.000000 6.557439
44.142300 31.000000 5.567764
44.162800 37.000000 6.082763
44.183200 37.000000 6.082763
44.203600 46.000000 6.782330
44.224100 38.000000 6.164414
44.244500 41.000000 6.403124
44.264900 34.000000 5.830952
44.285400 36.000000 6.000000
44.305800 34.000000 5.830952
44.326200 46.000000 6.782330
44.346700 34.000000 5.830952
44.367100 41.000000 6.403124
44.387500 31.000000 5.567764
44.408000 41.000000 6.403124
44.428400 33.000000 5.744563
44.448800 42.000000 6.480741
44.469300 41.000000 6.403124
44.489700 43.000000 6.557439
44.510100 36.000000 6.000000
44.530600 47.000000 6.855655
44.551000 34.000000 5.830952
44.571400 44.000000 6.633250
44.591900 34.000000 5.830952
44.612300 37.000000 6.082763
44.632700 38.000000 6.164414
44.653100 32.000000 5.656854
44.673600 35.000000 5.916080
44.694000 40.000000 6.324555
44.714400 43.000000 6.557439
44.734900 26.000000 5.099020
44.755300 30.000000 5.477226
44.775700 27.000000 5.196152
44.796200 27.000000 5.196152
44.816600 49.000000 7.000000
44.837000 49.000000 7.000000
44.857500 31.000000 5.567764
44.877900 40.000000 6.324555
44.898300 28.000000 5.291503
44.918800 38.000000 6.164414
44.939200 45.000000 6.708204
44.959600 35.000000 5.916080
44.980100 45.000000 6.708204
45.000500 35.000000 5.916080
45.020900 35.000000 5.916080
45.041400 33.000000 5.744563
45.061800 35.000000 5.916080
45.082200 35.000000 5.916080
45.102700 41.000000 6.403124
45.123100 40.000000 6.324555
45.143500 43.000000 6.557439
45.164000 40.000000 6.324555
45.184400 48.000000 6.928203
45.204800 43.000000 6.557439
45.225300 48.000000 6.928203
45.245700 53.000000 7.280110
45.266100 56.000000 7.483315
45.286500 49.000000 7.000000
45.307000 50.000000 7.071068
45.327400 63.000000 7.937254
45.347800 62.000000 7.874008
45.368300 75.000000 8.660254
45.388700 70.000000 8.366600
45.409100 95.000000 9.746794
45.429600 130.000000 11.401754
45.450000 123.000000 11.090537
45.470400 178.000000 13.341664
45.490900 196.000000 14.000000
45.511300 181.000000 13.453624
45.531700 169.000000 13.000000
45.552200 163.000000 12.767145
45.572600 192.000000 13.856406
45.593000 185.000000 13.601471
45.613500 159.000000 12.609520
45.633900 181.000000 13.453624
45.654300 178.000000 13.341664
45.674800 183.000000 13.527749
45.695200 170.000000 13.038405
45.715600 144.000000 12.000000
45.736100 143.000000 11.958261
45.756500 168.000000 12.961481
45.776900 136.000000 11.661904
45.797400 177.000000 13.304135
45.817800 165.000000 12.845233
45.838200 179.000000 13.379088
45.858700 182.000000 13.490738
45.879100 187.000000 13.674794
45.899500 248.000000 15.748016
45.919900 261.000000 16.155494
45.940400 243.000000 15.588457
45.960800 212.000000 14.560220
45.981200 188.000000 13.711309
46.001700 184.000000 13.564660
46.022100 265.000000 16.278821
46.042500 255.000000 15.968719
46.063000 308.000000 17.549929
46.083400 313.000000 17.691806
46.103800 353.000000 18.788294
46.124300 305.000000 17.464249
46.144700 251.000000 15.842980
46.165100 187.000000 13.674794
46.185600 205.000000 14.317821
46.206000 200.000000 14.142136
46.226400 208.000000 14.422205
46.246900 164.000000 12.806248
46.267300 134.000000 11.575837
46.287700 120.000000 10.954451
46.308200 95.000000 9.746794
46.328600 75.000000 8.660254
46.349000 82.000000 9.055385
46.369500 78.000000 8.831761
46.389900 94.000000 9.695360
46.410300 73.000000 8.544004
46.430800 63.000000 7.937254
46.451200 76.000000 8.717798
46.471600 76.000000 8.717798
46.492000 76.000000 8.717798
46.512500 87.000000 9.327379
46.532900 99.000000 9.949874
46.553300 113.000000 10.630146
46.573800 108.000000 10.392305
46.594200 139.000000 11.789826
46.614600 129.000000 11.357817
46.635100 177.000000 13.304135
46.655500 185.000000 13.601471
46.675900 233.000000 15.264338
46.696400 300.000000 17.320508
46.716800 418.000000 20.445048
46.737200 481.000000 21.931712
46.757700 555.000000 23.558438
46.778100 573.000000 23.937418
46.798500 649.000000 25.475478
46.819000 542.000000 23.280893
46.839400 476.000000 21.817424
46.859800 485.000000 22.022716
46.880300 470.000000 21.679483
46.900700 463.000000 21.517435
46.921100 418.000000 20.445048
46.941600 319.000000 17.860571
46.962000 283.000000 16.822604
46.982400 238.000000 15.427249
47.002900 214.000000 14.628739
47.023300 194.000000 13.928388
47.043700 195.000000 13.964240
47.064200 178.000000 13.341664
47.084600 183.000000 13.527749
47.105000 161.000000 12.688578
47.125400 145.000000 12.041595
47.145900 137.000000 11.704700
47.166300 155.000000 12.449900
47.186700 162.000000 12.727922
47.207200 178.000000 13.341664
47.227600 258.000000 16.062378
47.248000 328.000000 18.110770
47.268500 397.000000 19.924859
47.288900 532.000000 23.065125
47.309300 673.000000 25.942244
47.329800 706.000000 26.570661
47.350200 634.000000 25.179357
47.370600 513.000000 22.649503
47.391100 413.000000 20.322401
47.411500 408.000000 20.199010
47.431900 418.000000 20.445048
47.452400 380.000000 19.493589
47.472800 347.000000 18.627936
47.493200 267.000000 16.340135
47.513700 245.000000 15.652476
47.534100 177.000000 13.304135
47.554500 129.000000 11.357817
47.575000 115.000000 10.723805
47.595400 89.000000 9.433981
47.615800 85.000000 9.219544
47.636300 73.000000 8.544004
47.656700 69.000000 8.306624
47.677100 59.000000 7.681146
47.697600 71.000000 8.426150
47.718000 49.000000 7.000000
47.738400 65.000000 8.062258
47.758800 55.000000 7.416198
47.779300 55.000000 7.416198
47.799700 47.000000 6.855655
47.820100 47.000000 6.855655
47.840600 48.000000 6.928203
47.861000 50.000000 7.071068
47.881400 48.000000 6.928203
47.901900 54.000000 7.348469
47.922300 55.000000 7.416198
47.942700 55.000000 7.416198
47.963200 58.000000 7.615773
47.983600 48.000000 6.928203
48.004000 53.000000 7.280110
48.024500 56.000000 7.483315
48.044900 58.000000 7.615773
48.065300 54.000000 7.348469
48.085800 51.000000 7.141428
48.106200 50.000000 7.071068
48.126600 47.000000 6.855655
48.147100 51.000000 7.141428
48.167500 49.000000 7.000000
48.187900 63.000000 7.937254
48.208400 48.000000 6.928203
48.228800 49.000000 7.000000
48.249200 46.000000 6.782330
48.269700 59.000000 7.681146
48.290100 63.000000 7.937254
48.310500 65.000000 8.062258
48.330900 68.000000 8.246211
48.351400 66.000000 8.124038
48.371800 66.000000 8.124038
48.392200 53.000000 7.280110
48.412700 55.000000 7.416198
48.433100 70.000000 8.366600
48.453500 49.000000 7.000000
48.474000 60.000000 7.745967
48.494400 56.000000 7.483315
48.514800 54.000000 7.348469
48.535300 56.000000 7.483315
48.555700 53.000000 7.280110
48.576100 52.000000 7.211103
48.596600 46.000000 6.782330
48.617000 45.000000 6.708204
48.637400 64.000000 8.000000
48.657900 43.000000 6.557439
48.678300 46.000000 6.782330
48.698700 59.000000 7.681146
48.719200 51.000000 7.141428
48.739600 52.000000 7.211103
48.760000 44.000000 6.633250
48.780500 38.000000 6.164414
48.800900 41.000000 6.403124
48.821300 47.000000 6.855655
48.841800 38.000000 6.164414
48.862200 48.000000 6.928203
48.882600 31.000000 5.567764
48.903100 33.000000 5.744563
48.923500 41.000000 6.403124
48.943900 47.000000 6.855655
48.964300 47.000000 6.855655
48.984800 41.000000 6.403124
49.005200 51.000000 7.141428
49.025600 38.000000 6.164414
49.046100 49.000000 7.000000
49.066500 48.000000 6.928203
49.086900 40.000000 6.324555
49.107400 31.000000 5.567764
49.127800 37.000000 6.082763
49.148200 37.000000 6.082763
49.168700 46.000000 6.782330
49.189100 35.000000 5.916080
49.209500 47.000000 6.855655
49.230000 48.000000 6.928203
49.250400 49.000000 7.000000
49.270800 34.000000 5.830952
49.291300 44.000000 6.633250
49.311700 40.000000 6.324555
49.332100 43.000000 6.557439
49.352600 32.000000 5.656854
49.373000 43.000000 6.557439
49.393400 46.000000 6.782330
49.413900 56.000000 7.483315
49.434300 53.000000 7.280110
49.454700 45.000000 6.708204
49.475200 47.000000 6.855655
49.495600 51.000000 7.141428
49.516000 52.000000 7.211103
49.536500 45.000000 6.708204
49.556900 44.000000 6.633250
49.577300 34.000000 5.830952
49.597700 60.000000 7.745967
49.618200 53.000000 7.280110
49.638600 58.000000 7.615773
49.659000 49.000000 7.000000
49.679500 65.000000 8.062258
49.699900 76.000000 8.717798
49.720300 70.000000 8.366600
49.740800 60.000000 7.745967
49.761200 78.000000 8.831761
49.781600 92.000000 9.591663
49.802100 67.000000 8.185353
49.822500 67.000000 8.185353
49.842900 63.000000 7.937254
49.863400 79.000000 8.888194
49.883800 98.000000 9.899495
49.904200 119.000000 10.908712
49.924700 140.000000 11.832160
49.945100 163.000000 12.767145
49.965500 248.000000 15.748016
49.986000 267.000000 16.340135
50.006400 289.000000 17.000000
50.026800 247.000000 15.716234
50.047300 229.000000 15.132746
50.067700 234.000000 15.297059
50.088100 216.000000 14.696938
50.108600 237.000000 15.394804
50.129000 237.000000 15.394804
50.149400 204.000000 14.282857
50.169800 216.000000 14.696938
50.190300 215.000000 14.662878
50.210700 232.000000 15.231546
50.231100 210.000000 14.491377
50.251600 222.000000 14.899664
50.272000 257.000000 16.031220
50.292400 308.000000 17.549929
50.312900 317.000000 17.804494
50.333300 428.000000 20.688161
50.353700 399.000000 19.974984
50.374200 347.000000 18.627936
50.394600 284.000000 16.852300
50.415000 245.000000 15.652476
50.435500 239.000000 15.459625
50.455900 233.000000 15.264338
50.476300 234.000000 15.297059
50.496800 216.000000 14.696938
50.517200 192.000000 13.856406
50.537600 146.000000 12.083046
50.558100 112.000000 10.583005
50.578500 90.000000 9.486833
50.598900 84.000000 9.165151
50.619400 71.000000 8.426150
50.639800 62.000000 7.874008
50.660200 64.000000 8.000000
50.680700 59.000000 7.681146
50.701100 64.000000 8.000000
50.721500 61.000000 7.810250
50.742000 60.000000 7.745967
50.762400 54.000000 7.348469
50.782800 46.000000 6.782330
50.803200 43.000000 6.557439
50.823700 38.000000 6.164414
50.844100 33.000000 5.744563
50.864500 50.000000 7.071068
50.885000 50.000000 7.071068
50.905400 50.000000 7.071068
50.925800 35.000000 5.916080
50.946300 45.000000 6.708204
50.966700 51.000000 7.141428
50.987100 52.000000 7.211103
51.007600 54.000000 7.348469
51.028000 43.000000 6.557439
51.048400 48.000000 6.928203
51.068900 34.000000 5.830952
51.089300 55.000000 7.416198
51.109700 39.000000 6.244998
51.130200 44.000000 6.633250
51.150600 33.000000 5.744563
51.171000 46.000000 6.782330
51.191500 32.000000 5.656854
51.211900 53.000000 7.280110
51.232300 41.000000 6.403124
51.252800 53.000000 7.280110
51.273200 42.000000 6.480741
51.293600 31.000000 5.567764
51.314100 42.000000 6.480741
51.334500 26.000000 5.099020
51.354900 36.000000 6.000000
51.375400 25.000000 5.000000
51.395800 40.000000 6.324555
51.416200 38.000000 6.164414
51.436600 46.000000 6.782330
51.457100 50.000000 7.071068
51.477500 46.000000 6.782330
51.497900 42.000000 6.480741
51.518400 59.000000 7.681146
51.538800 38.000000 6.164414
51.559200 39.000000 6.244998
51.579700 48.000000 6.928203
51.600100 48.000000 6.928203
51.620500 49.000000 7.000000
51.641000 38.000000 6.164414
51.661400 54.000000 7.348469
51.681800 62.000000 7.874008
51.702300 41.000000 6.403124
51.722700 56.000000 7.483315
51.743100 51.000000 7.141428
51.763600 46.000000 6.782330
51.784000 46.000000 6.782330
51.804400 46.000000 6.782330
51.824900 38.000000 6.164414
51.845300 46.000000 6.782330
51.865700 42.000000 6.480741
51.886200 39.000000 6.244998
51.906600 56.000000 7.483315
51.927000 43.000000 6.557439
51.947500 52.000000 7.211103
51.967900 41.000000 6.403124
51.988300 47.000000 6.855655
52.008800 44.000000 6.633250
52.029200 54.000000 7.348469
52.049600 41.000000 6.403124
52.070000 46.000000 6.782330
52.090500 49.000000 7.000000
52.110900 48.000000 6.928203
52.131300 48.000000 6.928203
52.151800 52.000000 7.211103
52.172200 45.000000 6.708204
52.192600 42.000000 6.480741
52.213100 48.000000 6.928203
52.233500 63.000000 7.937254
52.253900 41.000000 6.403124
52.274400 37.000000 6.082763
52.294800 45.000000 6.708204
52.315200 46.000000 6.782330
52.335700 36.000000 6.000000
52.356100 44.000000 6.633250
52.376500 63.000000 7.937254
52.397000 49.000000 7.000000
52.417400 42.000000 6.480741
52.437800 43.000000 6.557439
52.458300 57.000000 7.549834
52.478700 42.000000 6.480741
52.499100 54.000000 7.348469
52.519600 46.000000 6.782330
52.540000 42.000000 6.480741
52.560400 47.000000 6.855655
52.580900 53.000000 7.280110
52.601300 47.000000 6.855655
52.621700 43.000000 6.557439
52.642100 54.000000 7.348469
52.662600 39.000000 6.244998
52.683000 40.000000 6.324555
52.703400 45.000000 6.708204
52.723900 56.000000 7.483315
52.744300 42.000000 6.480741
52.764700 46.000000 6.782330
52.785200 40.000000 6.324555
52.805600 63.000000 7.937254
52.826000 46.000000 6.782330
52.846500 62.000000 7.874008
52.866900 68.000000 8.246211
52.887300 49.000000 7.000000
52.907800 62.000000 7.874008
52.928200 62.000000 7.874008
52.948600 69.000000 8.306624
52.969100 67.000000 8.185353
52.989500 69.000000 8.306624
53.009900 72.000000 8.485281
53.030400 78.000000 8.831761
53.050800 85.000000 9.219544
53.071200 93.000000 9.643651
53.091700 84.000000 9.165151
53.112100 103.000000 10.148892
53.132500 112.000000 10.583005
53.153000 129.000000 11.357817
53.173400 174.000000 13.190906
53.193800 251.000000 15.842980
53.214300 291.000000 17.058722
53.234700 402.000000 20.049938
53.255100 491.000000 22.158520
53.275500 533.000000 23.086793
53.296000 557.000000 23.600847
53.316400 637.000000 25.238859
53.336800 607.000000 24.637370
53.357300 573.000000 23.937418
53.377700 501.000000 22.383029
53.398100 455.000000 21.330729
53.418600 420.000000 20.493902
53.439000 401.000000 20.024984
53.459400 386.000000 19.646883
53.479900 341.000000 18.466185
53.500300 307.000000 17.521415
53.520700 271.000000 16.462078
53.541200 226.000000 15.033296
53.561600 169.000000 13.000000
53.582000 173.000000 13.152946
53.602500 132.000000 11.489125
53.622900 138.000000 11.747340
53.643300 129.000000 11.357817
53.663800 96.000000 9.797959
53.684200 86.000000 9.273618
53.704600 96.000000 9.797959
53.725100 81.000000 9.000000
53.745500 72.000000 8.485281
53.765900 59.000000 7.681146
53.786400 69.000000 8.306624
53.806800 62.000000 7.874008
53.827200 71.000000 8.426150
53.847700 62.000000 7.874008
53.868100 53.000000 7.280110
53.888500 59.000000 7.681146
53.908900 52.000000 7.211103
53.929400 63.000000 7.937254
53.949800 60.000000 7.745967
53.970200 46.000000 6.782330
53.990700 61.000000 7.810250
54.011100 63.000000 7.937254
54.031500 48.000000 6.928203
54.052000 66.000000 8.124038
54.072400 66.000000 8.124038
54.092800 68.000000 8.246211
54.113300 66.000000 8.124038
54.133700 73.000000 8.544004
54.154100 76.000000 8.717798
54.174600 63.000000 7.937254
54.195000 56.000000 7.483315
54.215400 73.000000 8.544004
54.235900 48.000000 6.928203
54.256300 85.000000 9.219544
54.276700 56.000000 7.483315
54.297200 66.000000 8.124038
54.317600 74.000000 8.602325
54.338000 59.000000 7.681146
54.358500 58.000000 7.615773
54.378900 56.000000 7.483315
54.399300 59.000000 7.681146
54.419800 56.000000 7.483315
54.440200 65.000000 8.062258
54.460600 69.000000 8.306624
54.481000 71.000000 8.426150
54.501500 69.000000 8.306624
54.521900 89.000000 9.433981
54.542300 73.000000 8.544004
54.562800 98.000000 9.899495
54.583200 94.000000 9.695360
54.603600 101.000000 10.049876
54.624100 123.000000 11.090537
54.644500 120.000000 10.954451
54.664900 84.000000 9.165151
54.685400 76.000000 8.717798
54.705800 81.000000 9.000000
54.726200 97.000000 9.848858
54.746700 84.000000 9.165151
54.767100 90.000000 9.486833
54.787500 71.000000 8.426150
54.808000 78.000000 8.831761
54.828400 74.000000 8.602325
54.848800 76.000000 8.717798
54.869300 55.000000 7.416198
54.889700 60.000000 7.745967
54.910100 62.000000 7.874008
54.930600 46.000000 6.782330
54.951000 67.000000 8.185353
54.971400 60.000000 7.745967
54.991900 51.000000 7.141428
55.012300 50.000000 7.071068
55.032700 67.000000 8.185353
55.053200 42.000000 6.480741
55.073600 58.000000 7.615773
55.094000 49.000000 7.000000
55.114400 57.000000 7.549834
55.134900 66.000000 8.124038
55.155300 74.000000 8.602325
55.175700 60.000000 7.745967
55.196200 54.000000 7.348469
55.216600 58.000000 7.615773
55.237000 49.000000 7.000000
55.257500 54.000000 7.348469
55.277900 62.000000 7.874008
55.298300 66.000000 8.124038
55.318800 50.000000 7.071068
55.339200 43.000000 6.557439
55.359600 49.000000 7.000000
55.380100 50.000000 7.071068
55.400500 43.000000 6.557439
55.420900 37.000000 6.082763
55.441400 60.000000 7.745967
55.461800 45.000000 6.708204
55.482200 51.000000 7.141428
55.502700 35.000000 5.916080
55.523100 41.000000 6.403124
55.543500 42.000000 6.480741
55.564000 38.000000 6.164414
55.584400 48.000000 6.928203
55.604800 46.000000 6.782330
55.625300 44.000000 6.633250
55.645700 43.000000 6.557439
55.666100 48.000000 6.928203
55.686600 62.000000 7.874008
55.707000 68.000000 8.246211
55.727400 54.000000 7.348469
55.747800 80.000000 8.944272
55.768300 101.000000 10.049876
55.788700 92.000000 9.591663
55.809100 96.000000 9.797959
55.829600 92.000000 9.591663
55.850000 103.000000 10.148892
55.870400 72.000000 8.485281
55.890900 128.000000 11.313708
55.911300 116.000000 10.770330
55.931700 120.000000 10.954451
55.952200 126.000000 11.224972
55.972600 96.000000 9.797959
55.993000 108.000000 10.392305
56.013500 85.000000 9.219544
56.033900 94.000000 9.695360
56.054300 99.000000 9.949874
56.074800 89.000000 9.433981
56.095200 85.000000 9.219544
56.115600 95.000000 9.746794
56.136100 73.000000 8.544004
56.156500 78.000000 8.831761
56.176900 85.000000 9.219544
56.197400 75.000000 8.660254
56.217800 74.000000 8.602325
56.238200 76.000000 8.717798
56.258700 74.000000 8.602325
56.279100 74.000000 8.602325
56.299500 74.000000 8.602325
56.319900 63.000000 7.937254
56.340400 64.000000 8.000000
56.360800 50.000000 7.071068
56.381200 69.000000 8.306624
56.401700 61.000000 7.810250
56.422100 53.000000 7.280110
56.442500 43.000000 6.557439
56.463000 51.000000 7.141428
56.483400 56.000000 7.483315
56.503800 37.000000 6.082763
56.524300 46.000000 6.782330
56.544700 33.000000 5.744563
56.565100 42.000000 6.480741
56.585600 41.000000 6.403124
56.606000 40.000000 6.324555
56.626400 33.000000 5.744563
56.646900 33.000000 5.744563
56.667300 34.000000 5.830952
56.687700 35.000000 5.916080
56.708200 33.000000 5.744563
56.728600 51.000000 7.141428
56.749000 28.000000 5.291503
56.769500 36.000000 6.000000
56.789900 36.000000 6.000000
56.810300 42.000000 6.480741
56.830800 35.000000 5.916080
56.851200 38.000000 6.164414
56.871600 41.000000 6.403124
56.892100 47.000000 6.855655
56.912500 36.000000 6.000000
56.932900 34.000000 5.830952
56.953300 45.000000 6.708204
56.973800 43.000000 6.557439
56.994200 33.000000 5.744563
57.014600 41.000000 6.403124
57.035100 33.000000 5.744563
57.055500 38.000000 6.164414
57.075900 36.000000 6.000000
57.096400 42.000000 6.480741
57.116800 45.000000 6.708204
57.137200 32.000000 5.656854
57.157700 40.000000 6.324555
57.178100 33.000000 5.744563
57.198500 38.000000 6.164414
57.219000 49.000000 7.000000
57.239400 55.000000 7.416198
57.259800 47.000000 6.855655
57.280300 38.000000 6.164414
57.300700 46.000000 6.782330
57.321100 40.000000 6.324555
57.341600 51.000000 7.141428
57.362000 36.000000 6.000000
57.382400 45.000000 6.708204
57.402900 52.000000 7.211103
57.423300 44.000000 6.633250
57.443700 31.000000 5.567764
57.464200 45.000000 6.708204
57.484600 39.000000 6.244998
57.505000 38.000000 6.164414
57.525500 41.000000 6.403124
57.545900 48.000000 6.928203
57.566300 51.000000 7.141428
57.586700 41.000000 6.403124
57.607200 55.000000 7.416198
57.627600 45.000000 6.708204
57.648000 48.000000 6.928203
57.668500 44.000000 6.633250
57.688900 56.000000 7.483315
57.709300 59.000000 7.681146
57.729800 53.000000 7.280110
57.750200 58.000000 7.615773
57.770600 44.000000 6.633250
57.791100 51.000000 7.141428
57.811500 56.000000 7.483315
57.831900 68.000000 8.246211
57.852400 77.000000 8.774964
57.872800 88.000000 9.380832
57.893200 128.000000 11.313708
57.913700 130.000000 11.401754
57.934100 135.000000 11.618950
57.954500 155.000000 12.449900
57.975000 145.000000 12.041595
57.995400 120.000000 10.954451
58.015800 137.000000 11.704700
58.036300 123.000000 11.090537
58.056700 145.000000 12.041595
58.077100 133.000000 11.532563
58.097600 145.000000 12.041595
58.118000 133.000000 11.532563
58.138400 115.000000 10.723805
58.158800 145.000000 12.041595
58.179300 131.000000 11.445523
58.199700 124.000000 11.135529
58.220100 153.000000 12.369317
58.240600 184.000000 13.564660
58.261000 244.000000 15.620499
58.281400 273.000000 16.522712
58.301900 305.000000 17.464249
58.322300 323.000000 17.972201
58.342700 332.000000 18.220867
58.363200 337.000000 18.357560
58.383600 315.000000 17.748239
58.404000 284.000000 16.852300
58.424500 275.000000 16.583124
58.444900 260.000000 16.124515
58.465300 313.000000 17.691806
58.485800 292.000000 17.088007
58.506200 307.000000 17.521415
58.526600 337.000000 18.357560
58.547100 307.000000 17.521415
58.567500 335.000000 18.303005
58.587900 331.000000 18.193405
58.608400 283.000000 16.822604
58.628800 284.000000 16.852300
58.649200 257.000000 16.031220
58.669700 237.000000 15.394804
58.690100 247.000000 15.716234
58.710500 193.000000 13.892444
58.731000 232.000000 15.231546
58.751400 215.000000 14.662878
58.771800 199.000000 14.106736
58.792200 179.000000 13.379088
58.812700 152.000000 12.328828
58.833100 145.000000 12.041595
58.853500 142.000000 11.916375
58.874000 122.000000 11.045361
58.894400 125.000000 11.180340
58.914800 101.000000 10.049876
58.935300 97.000000 9.848858
58.955700 113.000000 10.630146
58.976100 121.000000 11.000000
58.996600 104.000000 10.198039
59.017000 101.000000 10.049876
59.037400 96.000000 9.797959
59.057900 102.000000 10.099505
59.078300 78.000000 8.831761
59.098700 91.000000 9.539392
59.119200 104.000000 10.198039
59.139600 113.000000 10.630146
59.160000 133.000000 11.532563
59.180500 126.000000 11.224972
59.200900 181.000000 13.453624
59.221300 188.000000 13.711309
59.241800 247.000000 15.716234
59.262200 259.000000 16.093477
59.282600 334.000000 18.275667
59.303100 303.000000 17.406895
59.323500 264.000000 16.248077
59.343900 255.000000 15.968719
59.364400 233.000000 15.264338
59.384800 233.000000 15.264338
59.405200 252.000000 15.874508
59.425600 262.000000 16.186414
59.446100 340.000000 18.439089
59.466500 339.000000 18.411953
59.486900 379.000000 19.467922
59.507400 367.000000 19.157244
59.527800 373.000000 19.313208
59.548200 303.000000 17.406895
59.568700 292.000000 17.088007
59.589100 251.000000 15.842980
59.609500 259.000000 16.093477
59.630000 252.000000 15.874508
59.650400 277.000000 16.643317
59.670800 316.000000 17.776389
59.691300 334.000000 18.275667
59.711700 352.000000 18.761663
59.732100 329.000000 18.138357
59.752600 286.000000 16.911535
59.773000 274.000000 16.552945
59.793400 232.000000 15.231546
59.813900 233.000000 15.264338
59.834300 189.000000 13.747727
59.854700 208.000000 14.422205
59.875200 205.000000 14.317821
59.895600 198.000000 14.071247
59.916000 228.000000 15.099669
59.936500 201.000000 14.177447
59.956900 189.000000 13.747727
59.977300 209.000000 14.456832
59.997700 243.000000 15.588457
60.018200 209.000000 14.456832
60.038600 271.000000 16.462078
60.059000 230.000000 15.165751
60.079500 208.000000 14.422205
60.099900 188.000000 13.711309
60.120300 141.000000 11.874342
60.140800 148.000000 12.165525
60.161200 160.000000 12.649111
60.181600 146.000000 12.083046
60.202100 160.000000 12.649111
60.222500 116.000000 10.770330
60.242900 101.000000 10.049876
60.263400 85.000000 9.219544
60.283800 100.000000 10.000000
60.304200 77.000000 8.774964
60.324700 51.000000 7.141428
60.345100 66.000000 8.124038
60.365500 53.000000 7.280110
60.386000 43.000000 6.557439
60.406400 47.000000 6.855655
60.426800 51.000000 7.141428
60.447300 43.000000 6.557439
60.467700 60.000000 7.745967
60.488100 35.000000 5.916080
60.508600 37.000000 6.082763
60.529000 35.000000 5.916080
60.549400 50.000000 7.071068
60.569900 27.000000 5.196152
60.590300 39.000000 6.244998
60.610700 45.000000 6.708204
60.631100 44.000000 6.633250
60.651600 51.000000 7.141428
60.672000 50.000000 7.071068
60.692400 39.000000 6.244998
60.712900 48.000000 6.928203
60.733300 39.000000 6.244998
60.753700 44.000000 6.633250
60.774200 37.000000 6.082763
60.794600 42.000000 6.480741
60.815000 36.000000 6.000000
60.835500 39.000000 6.244998
60.855900 47.000000 6.855655
60.876300 42.000000 6.480741
60.896800 42.000000 6.480741
60.917200 36.000000 6.000000
60.937600 31.000000 5.567764
60.958100 32.000000 5.656854
60.978500 23.000000 4.795832
60.998900 41.000000 6.403124
61.019400 30.000000 5.477226
61.039800 44.000000 6.633250
61.060200 29.000000 5.385165
61.080700 38.000000 6.164414
61.101100 36.000000 6.000000
61.121500 25.000000 5.000000
61.142000 33.000000 5.744563
61.162400 31.000000 5.567764
61.182800 25.000000 5.000000
61.203300 43.000000 6.557439
61.223700 30.000000 5.477226
61.244100 34.000000 5.830952
61.264500 36.000000 6.000000
61.285000 34.000000 5.830952
61.305400 23.000000 4.795832
61.325800 25.000000 5.000000
61.346300 31.000000 5.567764
61.366700 38.000000 6.164414
61.387100 35.000000 5.916080
61.407600 31.000000 5.567764
61.428000 27.000000 5.196152
61.448400 35.000000 5.916080
61.468900 25.000000 5.000000
61.489300 21.000000 4.582576
61.509700 28.000000 5.291503
61.530200 25.000000 5.000000
61.550600 28.000000 5.291503
61.571000 36.000000 6.000000
61.591500 15.000000 3.872983
61.611900 31.000000 5.567764
61.632300 29.000000 5.385165
61.652800 30.000000 5.477226
61.673200 29.000000 5.385165
61.693600 28.000000 5.291503
61.714100 37.000000 6.082763
61.734500 28.000000 5.291503
61.754900 32.000000 5.656854
61.775400 20.000000 4.472136
61.795800 28.000000 5.291503
61.816200 36.000000 6.000000
61.836600 30.000000 5.477226
61.857100 22.000000 4.690416
61.877500 25.000000 5.000000
61.897900 24.000000 4.898979
61.918400 22.000000 4.690416
61.938800 24.000000 4.898979
61.959200 23.000000 4.795832
61.979700 29.000000 5.385165
62.000100 24.000000 4.898979
62.020500 30.000000 5.477226
62.041000 29.000000 5.385165
62.061400 23.000000 4.795832
62.081800 28.000000 5.291503
62.102300 34.000000 5.830952
62.122700 36.000000 6.000000
62.143100 27.000000 5.196152
62.163600 39.000000 6.244998
62.184000 34.000000 5.830952
62.204400 30.000000 5.477226
62.224900 37.000000 6.082763
62.245300 19.000000 4.358899
62.265700 43.000000 6.557439
62.286200 25.000000 5.000000
62.306600 30.000000 5.477226
62.327000 26.000000 5.099020
62.347500 19.000000 4.358899
62.367900 33.000000 5.744563
62.388300 23.000000 4.795832
62.408800 32.000000 5.656854
62.429200 32.000000 5.656854
62.449600 32.000000 5.656854
62.470000 26.000000 5.099020
62.490500 31.000000 5.567764
62.510900 30.000000 5.477226
62.531300 31.000000 5.567764
62.551800 41.000000 6.403124
62.572200 34.000000 5.830952
62.592600 22.000000 4.690416
62.613100 27.000000 5.196152
62.633500 21.000000 4.582576
62.653900 21.000000 4.582576
62.674400 30.000000 5.477226
62.694800 28.000000 5.291503
62.715200 23.000000 4.795832
62.735700 33.000000 5.744563
62.756100 30.000000 5.477226
62.776500 26.000000 5.099020
62.797000 25.000000 5.000000
62.817400 33.000000 5.744563
62.837800 33.000000 5.744563
62.858300 26.000000 5.099020
62.878700 36.000000 6.000000
62.899100 26.000000 5.099020
62.919600 20.000000 4.472136
62.940000 31.000000 5.567764
62.960400 24.000000 4.898979
62.980900 29.000000 5.385165
63.001300 31.000000 5.567764
63.021700 39.000000 6.244998
63.042200 36.000000 6.000000
63.062600 31.000000 5.567764
63.083000 28.000000 5.291503
63.103400 22.000000 4.690416
63.123900 30.000000 5.477226
63.144300 29.000000 5.385165
63.164700 33.000000 5.744563
63.185200 34.000000 5.830952
63.205600 27.000000 5.196152
63.226000 26.000000 5.099020
63.246500 35.000000 5.916080
63.266900 37.000000 6.082763
63.287300 32.000000 5.656854
63.307800 27.000000 5.196152
63.328200 28.000000 5.291503
63.348600 24.000000 4.898979
63.369100 26.000000 5.099020
63.389500 26.000000 5.099020
63.409900 30.000000 5.477226
63.430400 26.000000 5.099020
63.450800 32.000000 5.656854
63.471200 32.000000 5.656854
63.491700 26.000000 5.099020
63.512100 47.000000 6.855655
63.532500 56.000000 7.483315
63.553000 60.000000 7.745967
63.573400 80.000000 8.944272
63.593800 68.000000 8.246211
63.614300 79.000000 8.888194
63.634700 70.000000 8.366600
63.655100 61.000000 7.810250
63.675500 47.000000 6.855655
63.696000 51.000000 7.141428
63.716400 54.000000 7.348469
63.736800 55.000000 7.416198
63.757300 49.000000 7.000000
63.777700 48.000000 6.928203
63.798100 49.000000 7.000000
63.818600 42.000000 6.480741
63.839000 55.000000 7.416198
63.859400 39.000000 6.244998
63.879900 37.000000 6.082763
63.900300 43.000000 6.557439
63.920700 39.000000 6.244998
63.941200 25.000000 5.000000
63.961600 32.000000 5.656854
63.982000 31.000000 5.567764
64.002500 35.000000 5.916080
64.022900 28.000000 5.291503
64.043300 27.000000 5.196152
64.063800 34.000000 5.830952
64.084200 26.000000 5.099020
64.104600 31.000000 5.567764
64.125100 23.000000 4.795832
64.145500 27.000000 5.196152
64.165900 31.000000 5.567764
64.186400 24.000000 4.898979
64.206800 23.000000 4.795832
64.227200 38.000000 6.164414
64.247700 24.000000 4.898979
64.268100 22.000000 4.690416
64.288500 25.000000 5.000000
64.308900 27.000000 5.196152
64.329400 22.000000 4.690416
64.349800 34.000000 5.830952
64.370200 30.000000 5.477226
64.390700 19.000000 4.358899
64.411100 32.000000 5.656854
64.431500 24.000000 4.898979
64.452000 29.000000 5.385165
64.472400 29.000000 5.385165
64.492800 19.000000 4.358899
64.513300 25.000000 5.000000
64.533700 29.000000 5.385165
64.554100 18.000000 4.242641
64.574600 22.000000 4.690416
64.595000 26.000000 5.099020
64.615400 28.000000 5.291503
64.635900 20.000000 4.472136
64.656300 28.000000 5.291503
64.676700 28.000000 5.291503
64.697200 22.000000 4.690416
64.717600 24.000000 4.898979
64.738000 20.000000 4.472136
64.758500 25.000000 5.000000
64.778900 25.000000 5.000000
64.799300 38.000000 6.164414
64.819800 24.000000 4.898979
64.840200 25.000000 5.000000
64.860600 23.000000 4.795832
64.881100 32.000000 5.656854
64.901500 39.000000 6.244998
64.921900 27.000000 5.196152
64.942300 24.000000 4.898979
64.962800 36.000000 6.000000
64.983200 17.000000 4.123106
65.003600 33.000000 5.744563
65.024100 30.000000 5.477226
65.044500 20.000000 4.472136
65.064900 28.000000 5.291503
65.085400 44.000000 6.633250
65.105800 32.000000 5.656854
65.126200 32.000000 5.656854
65.146700 22.000000 4.690416
65.167100 30.000000 5.477226
65.187500 24.000000 4.898979
65.208000 34.000000 5.830952
65.228400 29.000000 5.385165
65.248800 29.000000 5.385165
65.269300 24.000000 4.898979
65.289700 21.000000 4.582576
65.310100 42.000000 6.480741
65.330600 39.000000 6.244998
65.351000 43.000000 6.557439
65.371400 32.000000 5.656854
65.391900 31.000000 5.567764
65.412300 31.000000 5.567764
65.432700 39.000000 6.244998
65.453200 44.000000 6.633250
65.473600 34.000000 5.830952
65.494000 36.000000 6.000000
65.514400 45.000000 6.708204
65.534900 37.000000 6.082763
65.555300 35.000000 5.916080
65.575700 36.000000 6.000000
65.596200 36.000000 6.000000
65.616600 38.000000 6.164414
65.637000 40.000000 6.324555
65.657500 40.000000 6.324555
65.677900 23.000000 4.795832
65.698300 31.000000 5.567764
65.718800 44.000000 6.633250
65.739200 35.000000 5.916080
65.759600 29.000000 5.385165
65.780100 26.000000 5.099020
65.800500 37.000000 6.082763
65.820900 52.000000 7.211103
65.841400 52.000000 7.211103
65.861800 54.000000 7.348469
65.882200 62.000000 7.874008
65.902700 78.000000 8.831761
65.923100 78.000000 8.831761
65.943500 85.000000 9.219544
65.964000 69.000000 8.306624
65.984400 67.000000 8.185353
66.004800 87.000000 9.327379
66.025300 91.000000 9.539392
66.045700 71.000000 8.426150
66.066100 69.000000 8.306624
66.086600 79.000000 8.888194
66.107000 74.000000 8.602325
66.127400 63.000000 7.937254
66.147800 69.000000 8.306624
66.168300 64.000000 8.000000
66.188700 68.000000 8.246211
66.209100 66.000000 8.124038
66.229600 63.000000 7.937254
66.250000 60.000000 7.745967
66.270400 52.000000 7.211103
66.290900 54.000000 7.348469
66.311300 64.000000 8.000000
66.331700 44.000000 6.633250
66.352200 53.000000 7.280110
66.372600 55.000000 7.416198
66.393000 67.000000 8.185353
66.413500 75.000000 8.660254
66.433900 66.000000 8.124038
66.454300 68.000000 8.246211
66.474800 80.000000 8.944272
66.495200 74.000000 8.602325
66.515600 81.000000 9.000000
66.536100 71.000000 8.426150
66.556500 79.000000 8.888194
66.576900 92.000000 9.591663
66.597400 65.000000 8.062258
66.617800 53.000000 7.280110
66.638200 64.000000 8.000000
66.658700 80.000000 8.944272
66.679100 64.000000 8.000000
66.699500 69.000000 8.306624
66.720000 63.000000 7.937254
66.740400 62.000000 7.874008
66.760800 53.000000 7.280110
66.781200 43.000000 6.557439
66.801700 43.000000 6.557439
66.822100 41.000000 6.403124
66.842500 38.000000 6.164414
66.863000 37.000000 6.082763
66.883400 37.000000 6.082763
66.903800 44.000000 6.633250
66.924300 34.000000 5.830952
66.944700 22.000000 4.690416
66.965100 27.000000 5.196152
66.985600 29.000000 5.385165
67.006000 33.000000 5.744563
67.026400 30.000000 5.477226
67.046900 27.000000 5.196152
67.067300 28.000000 5.291503
67.087700 37.000000 6.082763
67.108200 35.000000 5.916080
67.128600 26.000000 5.099020
67.149000 42.000000 6.480741
67.169500 25.000000 5.000000
67.189900 32.000000 5.656854
67.210300 31.000000 5.567764
67.230800 34.000000 5.830952
67.251200 38.000000 6.164414
67.271600 30.000000 5.477226
67.292100 24.000000 4.898979
67.312500 25.000000 5.000000
67.332900 38.000000 6.164414
67.353300 20.000000 4.472136
67.373800 35.000000 5.916080
67.394200 33.000000 5.744563
67.414600 27.000000 5.196152
67.435100 22.000000 4.690416
67.455500 20.000000 4.472136
67.475900 22.000000 4.690416
67.496400 32.000000 5.656854
67.516800 31.000000 5.567764
67.537200 25.000000 5.000000
67.557700 36.000000 6.000000
67.578100 26.000000 5.099020
67.598500 32.000000 5.656854
67.619000 22.000000 4.690416
67.639400 30.000000 5.477226
67.659800 17.000000 4.123106
67.680300 31.000000 5.567764
67.700700 29.000000 5.385165
67.721100 18.000000 4.242641
67.741600 35.000000 5.916080
67.762000 23.000000 4.795832
67.782400 29.000000 5.385165
67.802900 23.000000 4.795832
67.823300 28.000000 5.291503
67.843700 25.000000 5.000000
67.864200 32.000000 5.656854
67.884600 26.000000 5.099020
67.905000 32.000000 5.656854
67.925500 31.000000 5.567764
67.945900 43.000000 6.557439
67.966300 35.000000 5.916080
67.986700 29.000000 5.385165
68.007200 47.000000 6.855655
68.027600 30.000000 5.477226
68.048000 48.000000 6.928203
68.068500 32.000000 5.656854
68.088900 40.000000 6.324555
68.109300 34.000000 5.830952
68.129800 50.000000 7.071068
68.150200 46.000000 6.782330
68.170600 60.000000 7.745967
68.191100 56.000000 7.483315
68.211500 55.000000 7.416198
68.231900 60.000000 7.745967
68.252400 53.000000 7.280110
68.272800 26.000000 5.099020
68.293200 43.000000 6.557439
68.313700 48.000000 6.928203
68.334100 55.000000 7.416198
68.354500 42.000000 6.480741
68.375000 39.000000 6.244998
68.395400 40.000000 6.324555
68.415800 38.000000 6.164414
68.436300 28.000000 5.291503
68.456700 33.000000 5.744563
68.477100 23.000000 4.795832
68.497600 27.000000 5.196152
68.518000 31.000000 5.567764
68.538400 28.000000 5.291503
68.558900 29.000000 5.385165
68.579300 24.000000 4.898979
68.599700 28.000000 5.291503
68.620100 29.000000 5.385165
68.640600 27.000000 5.196152
68.661000 19.000000 4.358899
68.681400 24.000000 4.898979
68.701900 20.000000 4.472136
68.722300 32.000000 5.656854
68.742700 22.000000 4.690416
68.763200 29.000000 5.385165
68.783600 24.000000 4.898979
68.804000 21.000000 4.582576
68.824500 27.000000 5.196152
68.844900 28.000000 5.291503
68.865300 23.000000 4.795832
68.885800 23.000000 4.795832
68.906200 31.000000 5.567764
68.926600 34.000000 5.830952
68.947100 22.000000 4.690416
68.967500 21.000000 4.582576
68.987900 33.000000 5.744563
69.008400 21.000000 4.582576
69.028800 28.000000 5.291503
69.049200 37.000000 6.082763
69.069700 25.000000 5.000000
69.090100 20.000000 4.472136
69.110500 38.000000 6.164414
69.131000 40.000000 6.324555
69.151400 46.000000 6.782330
69.171800 44.000000 6.633250
69.192200 52.000000 7.211103
69.212700 51.000000 7.141428
69.233100 61.000000 7.810250
69.253500 54.000000 7.348469
69.274000 74.000000 8.602325
69.294400 58.000000 7.615773
69.314800 57.000000 7.549834
69.335300 51.000000 7.141428
69.355700 50.000000 7.071068
69.376100 39.000000 6.244998
69.396600 41.000000 6.403124
69.417000 50.000000 7.071068
69.437400 49.000000 7.000000
69.457900 51.000000 7.141428
69.478300 70.000000 8.366600
69.498700 52.000000 7.211103
69.519200 58.000000 7.615773
69.539600 52.000000 7.211103
69.560000 64.000000 8.000000
69.580500 55.000000 7.416198
69.600900 55.000000 7.416198
69.621300 55.000000 7.416198
69.641800 55.000000 7.416198
69.662200 73.000000 8.544004
69.682600 73.000000 8.544004
69.703100 84.000000 9.165151
69.723500 100.000000 10.000000
69.743900 102.000000 10.099505
69.764400 72.000000 8.485281
69.784800 78.000000 8.831761
69.805200 67.000000 8.185353
69.825600 74.000000 8.602325
69.846100 72.000000 8.485281
69.866500 61.000000 7.810250
69.886900 55.000000 7.416198
69.907400 65.000000 8.062258
69.927800 52.000000 7.211103
69.948200 59.000000 7.681146
69.968700 48.000000 6.928203
69.989100 53.000000 7.280110
70.009500 37.000000 6.082763
70.030000 42.000000 6.480741
70.050400 45.000000 6.708204
70.070800 28.000000 5.291503
70.091300 53.000000 7.280110
70.111700 31.000000 5.567764
70.132100 39.000000 6.244998
70.152600 43.000000 6.557439
70.173000 47.000000 6.855655
70.193400 42.000000 6.480741
70.213900 51.000000 7.141428
70.234300 49.000000 7.000000
70.254700 44.000000 6.633250
70.275200 37.000000 6.082763
70.295600 36.000000 6.000000
70.316000 33.000000 5.744563
70.336500 53.000000 7.280110
70.356900 42.000000 6.480741
70.377300 31.000000 5.567764
70.397800 43.000000 6.557439
70.418200 38.000000 6.164414
70.438600 47.000000 6.855655
70.459000 37.000000 6.082763
70.479500 41.000000 6.403124
70.499900 28.000000 5.291503
70.520300 44.000000 6.633250
70.540800 37.000000 6.082763
70.561200 42.000000 6.480741
70.581600 42.000000 6.480741
70.602100 35.000000 5.916080
70.622500 39.000000 6.244998
70.642900 32.000000 5.656854
70.663400 39.000000 6.244998
70.683800 40.000000 6.324555
70.704200 37.000000 6.082763
70.724700 46.000000 6.782330
70.745100 47.000000 6.855655
70.765500 34.000000 5.830952
70.786000 32.000000 5.656854
70.806400 36.000000 6.000000
70.826800 41.000000 6.403124
70.847300 26.000000 5.099020
70.867700 34.000000 5.830952
70.888100 42.000000 6.480741
70.908600 38.000000 6.164414
70.929000 51.000000 7.141428
70.949400 31.000000 5.567764
70.969900 30.000000 5.477226
70.990300 37.000000 6.082763
71.010700 37.000000 6.082763
71.031100 32.000000 5.656854
71.051600 40.000000 6.324555
71.072000 31.000000 5.567764
71.092400 44.000000 6.633250
71.112900 24.000000 4.898979
71.133300 30.000000 5.477226
71.153700 28.000000 5.291503
71.174200 36.000000 6.000000
71.194600 21.000000 4.582576
71.215000 24.000000 4.898979
71.235500 28.000000 5.291503
71.255900 29.000000 5.385165
71.276300 26.000000 5.099020
71.296800 18.000000 4.242641
71.317200 25.000000 5.000000
71.337600 24.000000 4.898979
71.358100 21.000000 4.582576
71.378500 15.000000 3.872983
71.398900 23.000000 4.795832
71.419400 35.000000 5.916080
71.439800 26.000000 5.099020
71.460200 30.000000 5.477226
71.480700 31.000000 5.567764
71.501100 27.000000 5.196152
71.521500 17.000000 4.123106
71.542000 27.000000 5.196152
71.562400 21.000000 4.582576
71.582800 27.000000 5.196152
71.603300 23.000000 4.795832
71.623700 29.000000 5.385165
71.644100 22.000000 4.690416
71.664500 27.000000 5.196152
71.685000 26.000000 5.099020
71.705400 24.000000 4.898979
71.725800 26.000000 5.099020
71.746300 24.000000 4.898979
71.766700 25.000000 5.000000
71.787100 20.000000 4.472136
71.807600 27.000000 5.196152
71.828000 31.000000 5.567764
71.848400 23.000000 4.795832
71.868900 40.000000 6.324555
71.889300 15.000000 3.872983
71.909700 21.000000 4.582576
71.930200 23.000000 4.795832
71.950600 25.000000 5.000000
71.971000 28.000000 5.291503
71.991500 31.000000 5.567764
72.011900 29.000000 5.385165
72.032300 20.000000 4.472136
72.052800 25.000000 5.000000
72.073200 19.000000 4.358899
72.093600 27.000000 5.196152
72.114100 19.000000 4.358899
72.134500 26.000000 5.099020
72.154900 26.000000 5.099020
72.175400 19.000000 4.358899
72.195800 34.000000 5.830952
72.216200 25.000000 5.000000
72.236700 26.000000 5.099020
72.257100 33.000000 5.744563
72.277500 22.000000 4.690416
72.297900 27.000000 5.196152
72.318400 24.000000 4.898979
72.338800 23.000000 4.795832
72.359200 29.000000 5.385165
72.379700 31.000000 5.567764
72.400100 23.000000 4.795832
72.420500 28.000000 5.291503
72.441000 23.000000 4.795832
72.461400 22.000000 4.690416
72.481800 28.000000 5.291503
72.502300 32.000000 5.656854
72.522700 28.000000 5.291503
72.543100 24.000000 4.898979
72.563600 32.000000 5.656854
72.584000 29.000000 5.385165
72.604400 29.000000 5.385165
72.624900 33.000000 5.744563
72.645300 31.000000 5.567764
72.665700 35.000000 5.916080
72.686200 44.000000 6.633250
72.706600 38.000000 6.164414
72.727000 50.000000 7.071068
72.747500 49.000000 7.000000
72.767900 46.000000 6.782330
72.788300 62.000000 7.874008
72.808800 58.000000 7.615773
72.829200 69.000000 8.306624
72.849600 57.000000 7.549834
72.870000 58.000000 7.615773
72.890500 48.000000 6.928203
72.910900 40.000000 6.324555
72.931300 53.000000 7.280110
72.951800 44.000000 6.633250
72.972200 63.000000 7.937254
72.992600 52.000000 7.211103
73.013100 49.000000 7.000000
73.033500 50.000000 7.071068
73.053900 46.000000 6.782330
73.074400 41.000000 6.403124
73.094800 41.000000 6.403124
73.115200 43.000000 6.557439
73.135700 50.000000 7.071068
73.156100 34.000000 5.830952
73.176500 42.000000 6.480741
73.197000 46.000000 6.782330
73.217400 32.000000 5.656854
73.237800 28.000000 5.291503
73.258300 28.000000 5.291503
73.278700 34.000000 5.830952
73.299100 36.000000 6.000000
73.319600 36.000000 6.000000
73.340000 27.000000 5.196152
73.360400 31.000000 5.567764
73.380900 35.000000 5.916080
73.401300 33.000000 5.744563
73.421700 39.000000 6.244998
73.442200 30.000000 5.477226
73.462600 29.000000 5.385165
73.483000 41.000000 6.403124
73.503400 35.000000 5.916080
73.523900 38.000000 6.164414
73.544300 39.000000 6.244998
73.564700 34.000000 5.830952
73.585200 32.000000 5.656854
73.605600 32.000000 5.656854
73.626000 34.000000 5.830952
73.646500 48.000000 6.928203
73.666900 37.000000 6.082763
73.687300 52.000000 7.211103
73.707800 33.000000 5.744563
73.728200 48.000000 6.928203
73.748600 45.000000 6.708204
73.769100 35.000000 5.916080
73.789500 47.000000 6.855655
73.809900 57.000000 7.549834
73.830400 65.000000 8.062258
73.850800 33.000000 5.744563
73.871200 52.000000 7.211103
73.891700 53.000000 7.280110
73.912100 55.000000 7.416198
73.932500 41.000000 6.403124
73.953000 56.000000 7.483315
73.973400 50.000000 7.071068
73.993800 42.000000 6.480741
74.014300 52.000000 7.211103
74.034700 54.000000 7.348469
74.055100 43.000000 6.557439
74.075600 47.000000 6.855655
74.096000 55.000000 7.416198
74.116400 43.000000 6.557439
74.136800 45.000000 6.708204
74.157300 49.000000 7.000000
74.177700 54.000000 7.348469
74.198100 46.000000 6.782330
74.218600 46.000000 6.782330
74.239000 54.000000 7.348469
74.259400 48.000000 6.928203
74.279900 69.000000 8.306624
74.300300 55.000000 7.416198
74.320700 76.000000 8.717798
74.341200 73.000000 8.544004
74.361600 99.000000 9.949874
74.382000 114.000000 10.677078
74.402500 110.000000 10.488088
74.422900 125.000000 11.180340
74.443300 117.000000 10.816654
74.463800 131.000000 11.445523
74.484200 117.000000 10.816654
74.504600 121.000000 11.000000
74.525100 111.000000 10.535654
74.545500 114.000000 10.677078
74.565900 112.000000 10.583005
74.586400 99.000000 9.949874
74.606800 94.000000 9.695360
74.627200 114.000000 10.677078
74.647700 102.000000 10.099505
74.668100 100.000000 10.000000
74.688500 98.000000 9.899495
74.708900 78.000000 8.831761
74.729400 94.000000 9.695360
74.749800 113.000000 10.630146
74.770200 101.000000 10.049876
74.790700 108.000000 10.392305
74.811100 117.000000 10.816654
74.831500 122.000000 11.045361
74.852000 111.000000 10.535654
74.872400 95.000000 9.746794
74.892800 79.000000 8.888194
74.913300 81.000000 9.000000
74.933700 69.000000 8.306624
74.954100 82.000000 9.055385
74.974600 67.000000 8.185353
74.995000 81.000000 9.000000
75.015400 80.000000 8.944272
75.035900 88.000000 9.380832
75.056300 93.000000 9.643651
75.076700 70.000000 8.366600
75.097200 68.000000 8.246211
75.117600 69.000000 8.306624
75.138000 54.000000 7.348469
75.158500 46.000000 6.782330
75.178900 55.000000 7.416198
75.199300 49.000000 7.000000
75.219800 41.000000 6.403124
75.240200 52.000000 7.211103
75.260600 47.000000 6.855655
75.281100 31.000000 5.567764
75.301500 45.000000 6.708204
75.321900 62.000000 7.874008
75.342300 44.000000 6.633250
75.362800 52.000000 7.211103
75.383200 45.000000 6.708204
75.403600 49.000000 7.000000
75.424100 64.000000 8.000000
75.444500 66.000000 8.124038
75.464900 57.000000 7.549834
75.485400 56.000000 7.483315
75.505800 54.000000 7.348469
75.526200 64.000000 8.000000
75.546700 66.000000 8.124038
75.567100 57.000000 7.549834
75.587500 70.000000 8.366600
75.608000 70.000000 8.366600
75.628400 71.000000 8.426150
75.648800 95.000000 9.746794
75.669300 78.000000 8.831761
75.689700 105.000000 10.246951
75.710100 95.000000 9.746794
75.730600 104.000000 10.198039
75.751000 85.000000 9.219544
75.771400 102.000000 10.099505
75.791900 104.000000 10.198039
75.812300 121.000000 11.000000
75.832700 115.000000 10.723805
75.853200 142.000000 11.916375
75.873600 131.000000 11.445523
75.894000 137.000000 11.704700
75.914500 121.000000 11.000000
75.934900 113.000000 10.630146
75.955300 111.000000 10.535654
75.975700 90.000000 9.486833
75.996200 82.000000 9.055385
76.016600 100.000000 10.000000
76.037000 94.000000 9.695360
76.057500 96.000000 9.797959
76.077900 96.000000 9.797959
76.098300 79.000000 8.888194
76.118800 89.000000 9.433981
76.139200 74.000000 8.602325
76.159600 91.000000 9.539392
76.180100 71.000000 8.426150
76.200500 80.000000 8.944272
76.220900 73.000000 8.544004
76.241400 59.000000 7.681146
76.261800 60.000000 7.745967
76.282200 63.000000 7.937254
76.302700 56.000000 7.483315
76.323100 61.000000 7.810250
76.343500 46.000000 6.782330
76.364000 98.000000 9.899495
76.384400 65.000000 8.062258
76.404800 79.000000 8.888194
76.425300 91.000000 9.539392
76.445700 98.000000 9.899495
76.466100 122.000000 11.045361
76.486600 124.000000 11.135529
76.507000 131.000000 11.445523
76.527400 129.000000 11.357817
76.547800 92.000000 9.591663
76.568300 104.000000 10.198039
76.588700 98.000000 9.899495
76.609100 91.000000 9.539392
76.629600 96.000000 9.797959
76.650000 95.000000 9.746794
76.670400 100.000000 10.000000
76.690900 117.000000 10.816654
76.711300 120.000000 10.954451
76.731700 133.000000 11.532563
76.752200 99.000000 9.949874
76.772600 109.000000 10.440307
76.793000 108.000000 10.392305
76.813500 80.000000 8.944272
76.833900 53.000000 7.280110
76.854300 53.000000 7.280110
76.874800 64.000000 8.000000
76.895200 46.000000 6.782330
76.915600 54.000000 7.348469
76.936100 50.000000 7.071068
76.956500 61.000000 7.810250
76.976900 52.000000 7.211103
76.997400 51.000000 7.141428
77.017800 43.000000 6.557439
77.038200 49.000000 7.000000
77.058700 40.000000 6.324555
77.079100 41.000000 6.403124
77.099500 41.000000 6.403124
77.120000 34.000000 5.830952
77.140400 37.000000 6.082763
77.160800 37.000000 6.082763
77.181200 32.000000 5.656854
77.201700 30.000000 5.477226
77.222100 35.000000 5.916080
77.242500 37.000000 6.082763
77.263000 35.000000 5.916080
77.283400 34.000000 5.830952
77.303800 32.000000 5.656854
77.324300 24.000000 4.898979
77.344700 40.000000 6.324555
77.365100 37.000000 6.082763
77.385600 33.000000 5.744563
77.406000 42.000000 6.480741
77.426400 44.000000 6.633250
77.446900 36.000000 6.000000
77.467300 50.000000 7.071068
77.487700 43.000000 6.557439
77.508200 54.000000 7.348469
77.528600 39.000000 6.244998
77.549000 42.000000 6.480741
77.569500 52.000000 7.211103
77.589900 38.000000 6.164414
77.610300 48.000000 6.928203
77.630800 46.000000 6.782330
77.651200 43.000000 6.557439
77.671600 46.000000 6.782330
77.692100 46.000000 6.782330
77.712500 54.000000 7.348469
77.732900 34.000000 5.830952
77.753400 50.000000 7.071068
77.773800 47.000000 6.855655
77.794200 50.000000 7.071068
77.814600 43.000000 6.557439
77.835100 39.000000 6.244998
77.855500 49.000000 7.000000
77.875900 35.000000 5.916080
77.896400 40.000000 6.324555
77.916800 31.000000 5.567764
77.937200 36.000000 6.000000
77.957700 30.000000 5.477226
77.978100 41.000000 6.403124
77.998500 40.000000 6.324555
78.019000 45.000000 6.708204
78.039400 53.000000 7.280110
78.059800 41.000000 6.403124
78.080300 54.000000 7.348469
78.100700 47.000000 6.855655
78.121100 54.000000 7.348469
78.141600 44.000000 6.633250
78.162000 38.000000 6.164414
78.182400 38.000000 6.164414
78.202900 47.000000 6.855655
78.223300 46.000000 6.782330
78.243700 49.000000 7.000000
78.264200 35.000000 5.916080
78.284600 40.000000 6.324555
78.305000 27.000000 5.196152
78.325500 37.000000 6.082763
78.345900 36.000000 6.000000
78.366300 49.000000 7.000000
78.386700 48.000000 6.928203
78.407200 39.000000 6.244998
78.427600 42.000000 6.480741
78.448000 50.000000 7.071068
78.468500 54.000000 7.348469
78.488900 53.000000 7.280110
78.509300 50.000000 7.071068
78.529800 59.000000 7.681146
78.550200 51.000000 7.141428
78.570600 44.000000 6.633250
78.591100 44.000000 6.633250
78.611500 41.000000 6.403124
78.631900 62.000000 7.874008
78.652400 44.000000 6.633250
78.672800 49.000000 7.000000
78.693200 44.000000 6.633250
78.713700 39.000000 6.244998
78.734100 42.000000 6.480741
78.754500 44.000000 6.633250
78.775000 45.000000 6.708204
78.795400 42.000000 6.480741
78.815800 39.000000 6.244998
78.836300 51.000000 7.141428
78.856700 36.000000 6.000000
78.877100 43.000000 6.557439
78.897600 49.000000 7.000000
78.918000 45.000000 6.708204
78.938400 52.000000 7.211103
78.958900 45.000000 6.708204
78.979300 55.000000 7.416198
78.999700 62.000000 7.874008
79.020100 30.000000 5.477226
79.040600 35.000000 5.916080
79.061000 42.000000 6.480741
79.081400 34.000000 5.830952
79.101900 36.000000 6.000000
79.122300 43.000000 6.557439
79.142700 30.000000 5.477226
79.163200 32.000000 5.656854
79.183600 45.000000 6.708204
79.204000 38.000000 6.164414
79.224500 46.000000 6.782330
79.244900 45.000000 6.708204
79.265300 47.000000 6.855655
79.285800 40.000000 6.324555
79.306200 40.000000 6.324555
79.326600 41.000000 6.403124
79.347100 24.000000 4.898979
79.367500 35.000000 5.916080
79.387900 33.000000 5.744563
79.408400 27.000000 5.196152
79.428800 29.000000 5.385165
79.449200 37.000000 6.082763
79.469700 29.000000 5.385165
79.490100 33.000000 5.744563
79.510500 30.000000 5.477226
79.531000 37.000000 6.082763
79.551400 36.000000 6.000000
79.571800 39.000000 6.244998
79.592300 37.000000 6.082763
79.612700 35.000000 5.916080
79.633100 31.000000 5.567764
79.653500 26.000000 5.099020
79.674000 32.000000 5.656854
79.694400 42.000000 6.480741
79.714800 47.000000 6.855655
79.735300 40.000000 6.324555
79.755700 37.000000 6.082763
79.776100 41.000000 6.403124
79.796600 44.000000 6.633250
79.817000 53.000000 7.280110
79.837400 40.000000 6.324555
79.857900 49.000000 7.000000
79.878300 34.000000 5.830952
79.898700 40.000000 6.324555
79.919200 34.000000 5.830952
79.939600 44.000000 6.633250
79.960000 36.000000 6.000000
79.980500 34.000000 5.830952
80.000900 42.000000 6.480741
