# Two-Theta Intensity Error
5.000100 3335.000000 57.749459
5.017900 3421.000000 58.489315
5.035800 3425.000000 58.523500
5.053700 3296.000000 57.410800
5.071600 3380.000000 58.137767
5.089500 3388.000000 58.206529
5.107300 3301.000000 57.454330
5.125200 3404.000000 58.343809
5.143100 3355.000000 57.922362
5.161000 3240.000000 56.920998
5.178900 3415.000000 58.438001
5.196700 3294.000000 57.393379
5.214600 3287.000000 57.332364
5.232500 3267.000000 57.157677
5.250400 3286.000000 57.323643
5.268300 3216.000000 56.709788
5.286100 3342.000000 57.810034
5.304000 3336.000000 57.758116
5.321900 3431.000000 58.574739
5.339800 3347.000000 57.853263
5.357700 3346.000000 57.844619
5.375500 3263.000000 57.122675
5.393400 3330.000000 57.706152
5.411300 3350.000000 57.879185
5.429200 3399.000000 58.300943
5.447100 3341.000000 57.801384
5.465000 3334.000000 57.740800
5.482800 3320.000000 57.619441
5.500700 3340.000000 57.792733
5.518600 3264.000000 57.131427
5.536500 3339.000000 57.784081
5.554400 3259.000000 57.087652
5.572200 3351.000000 57.887823
5.590100 3377.000000 58.111961
5.608000 3391.000000 58.232293
5.625900 3376.000000 58.103356
5.643800 3387.000000 58.197938
5.661600 3343.000000 57.818682
5.679500 3335.000000 57.749459
5.697400 3366.000000 58.017239
5.715300 3384.000000 58.172158
5.733200 3455.000000 58.779248
5.751000 3277.000000 57.245087
5.768900 3363.000000 57.991379
5.786800 3370.000000 58.051701
5.804700 3411.000000 58.403767
5.822600 3520.000000 59.329588
5.840500 3526.000000 59.380131
5.858300 3458.000000 58.804762
5.876200 3465.000000 58.864251
5.894100 3489.000000 59.067758
5.912000 3545.000000 59.539903
5.929900 3503.000000 59.186147
5.947700 3521.000000 59.338015
5.965600 3541.000000 59.506302
5.983500 3492.000000 59.093147
6.001400 3515.000000 59.287435
6.019300 3644.000000 60.365553
6.037100 3619.000000 60.158125
6.055000 3535.000000 59.455866
6.072900 3573.000000 59.774577
6.090800 3603.000000 60.024995
6.108700 3649.000000 60.406953
6.126500 3613.000000 60.108236
6.144400 3561.000000 59.674115
6.162300 3593.000000 59.941638
6.180200 3663.000000 60.522723
6.198100 3770.000000 61.400326
6.216000 3813.000000 61.749494
6.233800 3684.000000 60.695964
6.251700 3769.000000 61.392182
6.269600 3741.000000 61.163715
6.287500 3835.000000 61.927377
6.305400 3892.000000 62.385896
6.323200 3947.000000 62.825154
6.341100 3804.000000 61.676576
6.359000 3967.000000 62.984125
6.376900 3929.000000 62.681736
6.394800 4063.000000 63.741666
6.412600 4032.000000 63.498031
6.430500 4050.000000 63.639610
6.448400 4056.000000 63.686733
6.466300 4182.000000 64.668385
6.484200 4252.000000 65.207362
6.502000 4405.000000 66.370174
6.519900 4253.000000 65.215029
6.537800 4314.000000 65.681047
6.555700 4428.000000 66.543219
6.573600 4450.000000 66.708320
6.591500 4500.000000 67.082039
6.609300 4613.000000 67.919069
6.627200 4650.000000 68.190908
6.645100 4521.000000 67.238382
6.663000 4703.000000 68.578422
6.680900 4811.000000 69.361373
6.698700 4888.000000 69.914233
6.716600 4980.000000 70.569115
6.734500 5002.000000 70.724819
6.752400 5273.000000 72.615425
6.770300 5331.000000 73.013697
6.788100 5314.000000 72.897188
6.806000 5444.000000 73.783467
6.823900 5495.000000 74.128267
6.841800 5599.000000 74.826466
6.859700 5851.000000 76.491830
6.877500 5775.000000 75.993421
6.895400 5860.000000 76.550637
6.913300 5928.000000 76.993506
6.931200 5907.000000 76.857010
6.949100 6020.000000 77.588659
6.966900 6156.000000 78.460181
6.984800 6218.000000 78.854296
7.002700 6219.000000 78.860637
7.020600 6317.000000 79.479557
7.038500 6534.000000 80.833162
7.056400 6463.000000 80.392786
7.074200 6589.000000 81.172655
7.092100 6719.000000 81.969507
7.110000 6612.000000 81.314205
7.127900 6879.000000 82.939737
7.145800 6822.000000 82.595399
7.163600 6970.000000 83.486526
7.181500 6815.000000 82.553013
7.199400 6959.000000 83.420621
7.217300 7074.000000 84.107075
7.235200 6997.000000 83.648072
7.253000 7005.000000 83.695878
7.270900 7283.000000 85.340494
7.288800 7152.000000 84.569498
7.306700 7155.000000 84.587233
7.324600 7024.000000 83.809307
7.342400 7155.000000 84.587233
7.360300 7074.000000 84.107075
7.378200 7211.000000 84.917607
7.396100 7064.000000 84.047606
7.414000 7089.000000 84.196199
7.431900 7149.000000 84.551759
7.449700 7035.000000 83.874907
7.467600 7196.000000 84.829240
7.485500 7250.000000 85.146932
7.503400 7332.000000 85.627099
7.521300 7655.000000 87.492857
7.539100 8013.000000 89.515362
7.557000 8096.000000 89.977775
7.574900 7918.000000 88.983144
7.592800 7320.000000 85.556999
7.610700 7143.000000 84.516271
7.628500 6958.000000 83.414627
7.646400 7012.000000 83.737686
7.664300 6775.000000 82.310388
7.682200 6779.000000 82.334683
7.700100 6903.000000 83.084295
7.717900 6845.000000 82.734515
7.735800 6971.000000 83.492515
7.753700 6762.000000 82.231381
7.771600 6604.000000 81.264999
7.789500 6578.000000 81.104870
7.807400 6640.000000 81.486195
7.825200 6588.000000 81.166496
7.843100 6665.000000 81.639451
7.861000 6591.000000 81.184974
7.878900 6485.000000 80.529498
7.896800 6537.000000 80.851716
7.914600 6435.000000 80.218452
7.932500 6430.000000 80.187281
7.950400 6389.000000 79.931220
7.968300 6543.000000 80.888813
7.986200 6651.000000 81.553663
8.004000 6471.000000 80.442526
8.021900 6277.000000 79.227520
8.039800 6455.000000 80.343015
8.057700 6256.000000 79.094880
8.075600 6270.000000 79.183332
8.093400 6366.000000 79.787217
8.111300 6358.000000 79.737068
8.129200 6387.000000 79.918709
8.147100 6190.000000 78.676553
8.165000 6425.000000 80.156098
8.182900 6225.000000 78.898669
8.200700 6446.000000 80.286985
8.218600 6226.000000 78.905006
8.236500 6145.000000 78.390050
8.254400 6177.000000 78.593893
8.272300 6160.000000 78.485667
8.290100 6110.000000 78.166489
8.308000 6258.000000 79.107522
8.325900 6060.000000 77.846002
8.343800 6183.000000 78.632055
8.361700 6248.000000 79.044291
8.379500 6332.000000 79.573865
8.397400 6079.000000 77.967942
8.415300 6214.000000 78.828929
8.433200 6211.000000 78.809898
8.451100 6092.000000 78.051265
8.468900 6164.000000 78.511146
8.486800 6227.000000 78.911343
8.504700 6269.000000 79.177017
8.522600 6254.000000 79.082236
8.540500 6126.000000 78.268768
8.558300 6158.000000 78.472925
8.576200 6236.000000 78.968348
8.594100 6213.000000 78.822586
8.612000 6252.000000 79.069590
8.629900 6253.000000 79.075913
8.647800 6203.000000 78.759126
8.665600 6148.000000 78.409183
8.683500 6286.000000 79.284299
8.701400 6088.000000 78.025637
8.719300 6157.000000 78.466553
8.737200 6275.000000 79.214898
8.755000 6234.000000 78.955684
8.772900 6259.000000 79.113842
8.790800 6229.000000 78.924014
8.808700 6413.000000 80.081209
8.826600 6317.000000 79.479557
8.844400 6253.000000 79.075913
8.862300 6145.000000 78.390050
8.880200 6378.000000 79.862382
8.898100 6150.000000 78.421936
8.916000 6487.000000 80.541915
8.933800 6395.000000 79.968744
8.951700 6347.000000 79.668061
8.969600 6374.000000 79.837335
8.987500 6242.000000 79.006329
9.005400 6355.000000 79.718254
9.023300 6319.000000 79.492138
9.041100 6412.000000 80.074965
9.059000 6231.000000 78.936683
9.076900 6428.000000 80.174809
9.094800 6423.000000 80.143621
9.112700 6427.000000 80.168572
9.130500 6474.000000 80.461171
9.148400 6327.000000 79.542442
9.166300 6389.000000 79.931220
9.184200 6385.000000 79.906195
9.202100 6541.000000 80.876449
9.219900 6570.000000 81.055537
9.237800 6420.000000 80.124902
9.255700 6363.000000 79.768415
9.273600 6513.000000 80.703160
9.291500 6338.000000 79.611557
9.309300 6323.000000 79.517294
9.327200 6415.000000 80.093695
9.345100 6446.000000 80.286985
9.363000 6477.000000 80.479811
9.380900 6447.000000 80.293213
9.398800 6392.000000 79.949984
9.416600 6362.000000 79.762146
9.434500 6374.000000 79.837335
9.452400 6269.000000 79.177017
9.470300 6354.000000 79.711982
9.488200 6509.000000 80.678374
9.506000 6284.000000 79.271685
9.523900 6329.000000 79.555012
9.541800 6459.000000 80.367904
9.559700 6439.000000 80.243380
9.577600 6411.000000 80.068720
9.595400 6336.000000 79.598995
9.613300 6432.000000 80.199751
9.631200 6434.000000 80.212219
9.649100 6418.000000 80.112421
9.667000 6369.000000 79.806015
9.684800 6292.000000 79.322128
9.702700 6279.000000 79.240141
9.720600 6438.000000 80.237149
9.738500 6401.000000 80.006250
9.756400 6151.000000 78.428311
9.774300 6536.000000 80.845532
9.792100 6245.000000 79.025312
9.810000 6385.000000 79.906195
9.827900 6215.000000 78.835271
9.845800 6258.000000 79.107522
9.863700 6116.000000 78.204859
9.881500 6320.000000 79.498428
9.899400 6268.000000 79.170702
9.917300 6325.000000 79.529869
9.935200 6255.000000 79.088558
9.953100 6200.000000 78.740079
9.970900 6210.000000 78.803553
9.988800 6217.000000 78.847955
10.006700 6215.000000 78.835271
10.024600 6309.000000 79.429214
10.042500 6214.000000 78.828929
10.060300 6186.000000 78.651128
10.078200 6158.000000 78.472925
10.096100 6152.000000 78.434686
10.114000 6096.000000 78.076885
10.131900 6043.000000 77.736735
10.149700 5994.000000 77.420927
10.167600 6046.000000 77.756029
10.185500 5935.000000 77.038951
10.203400 6052.000000 77.794601
10.221300 6033.000000 77.672389
10.239200 6016.000000 77.562878
10.257000 6152.000000 78.434686
10.274900 5980.000000 77.330460
10.292800 5993.000000 77.414469
10.310700 6033.000000 77.672389
10.328600 6090.000000 78.038452
10.346400 5921.000000 76.948034
10.364300 5901.000000 76.817967
10.382200 5985.000000 77.362782
10.400100 5942.000000 77.084369
10.418000 6060.000000 77.846002
10.435800 5871.000000 76.622451
10.453700 6055.000000 77.813881
10.471600 5953.000000 77.155687
10.489500 6027.000000 77.633756
10.507400 5969.000000 77.259304
10.525200 6002.000000 77.472576
10.543100 5985.000000 77.362782
10.561000 6004.000000 77.485483
10.578900 6034.000000 77.678826
10.596800 5945.000000 77.103826
10.614700 5903.000000 76.830983
10.632500 5986.000000 77.369245
10.650400 5932.000000 77.019478
10.668300 6186.000000 78.651128
10.686200 6051.000000 77.788174
10.704100 5969.000000 77.259304
10.721900 6098.000000 78.089692
10.739800 6135.000000 78.326241
10.757700 5941.000000 77.077883
10.775600 5929.000000 77.000000
10.793500 6007.000000 77.504839
10.811300 6036.000000 77.691698
10.829200 5983.000000 77.349855
10.847100 6012.000000 77.537088
10.865000 5953.000000 77.155687
10.882900 5982.000000 77.343390
10.900700 5913.000000 76.896034
10.918600 6056.000000 77.820306
10.936500 5973.000000 77.285186
10.954400 5883.000000 76.700717
10.972300 5980.000000 77.330460
10.990200 5915.000000 76.909037
11.008000 5960.000000 77.201036
11.025900 5925.000000 76.974022
11.043800 5889.000000 76.739820
11.061700 5745.000000 75.795778
11.079600 5866.000000 76.589817
11.097400 5783.000000 76.046039
11.115300 5684.000000 75.392307
11.133200 5767.000000 75.940766
11.151100 5579.000000 74.692704
11.169000 5627.000000 75.013332
11.186800 5559.000000 74.558702
11.204700 5515.000000 74.263046
11.222600 5407.000000 73.532306
11.240500 5443.000000 73.776690
11.258400 5338.000000 73.061618
11.276200 5327.000000 72.986300
11.294100 5329.000000 73.000000
11.312000 5283.000000 72.684249
11.329900 5164.000000 71.860977
11.347800 5038.000000 70.978870
11.365700 5143.000000 71.714713
11.383500 5088.000000 71.330218
11.401400 5045.000000 71.028163
11.419300 4883.000000 69.878466
11.437200 4842.000000 69.584481
11.455100 4805.000000 69.318107
11.472900 4736.000000 68.818602
11.490800 4740.000000 68.847658
11.508700 4683.000000 68.432448
11.526600 4603.000000 67.845413
11.544500 4516.000000 67.201190
11.562300 4597.000000 67.801180
11.580200 4577.000000 67.653529
11.598100 4513.000000 67.178866
11.616000 4361.000000 66.037868
11.633900 4330.000000 65.802736
11.651700 4217.000000 64.938432
11.669600 4059.000000 63.710282
11.687500 4045.000000 63.600314
11.705400 4084.000000 63.906181
11.723300 4076.000000 63.843559
11.741200 3962.000000 62.944420
11.759000 3941.000000 62.777384
11.776900 4006.000000 63.292970
11.794800 3819.000000 61.798058
11.812700 3883.000000 62.313722
11.830600 3725.000000 61.032778
11.848400 3818.000000 61.789967
11.866300 3815.000000 61.765686
11.884200 3681.000000 60.671245
11.902100 3735.000000 61.114646
11.920000 3730.000000 61.073726
11.937800 3612.000000 60.099917
11.955700 3642.000000 60.348985
11.973600 3614.000000 60.116553
11.991500 3470.000000 58.906706
12.009400 3472.000000 58.923679
12.027200 3452.000000 58.753723
12.045100 3423.000000 58.506410
12.063000 3560.000000 59.665736
12.080900 3504.000000 59.194594
12.098800 3466.000000 58.872744
12.116600 3366.000000 58.017239
12.134500 3316.000000 57.584720
12.152400 3406.000000 58.360946
12.170300 3381.000000 58.146367
12.188200 3326.000000 57.671483
12.206100 3318.000000 57.602083
12.223900 3306.000000 57.497826
12.241800 3359.000000 57.956881
12.259700 3341.000000 57.801384
12.277600 3221.000000 56.753854
12.295500 3110.000000 55.767374
12.313300 3166.000000 56.267220
12.331200 3205.000000 56.612719
12.349100 3179.000000 56.382621
12.367000 3214.000000 56.692151
12.384900 3248.000000 56.991227
12.402700 3181.000000 56.400355
12.420600 3182.000000 56.409219
12.438500 3107.000000 55.740470
12.456400 3240.000000 56.920998
12.474300 3058.000000 55.299186
12.492100 3225.000000 56.789083
12.510000 3045.000000 55.181519
12.527900 3162.000000 56.231664
12.545800 3186.000000 56.444663
12.563700 3212.000000 56.674509
12.581600 3155.000000 56.169387
12.599400 3287.000000 57.332364
12.617300 3219.000000 56.736232
12.635200 3208.000000 56.639209
12.653100 3218.000000 56.727418
12.671000 3123.000000 55.883808
12.688800 3196.000000 56.533176
12.706700 3228.000000 56.815491
12.724600 3271.000000 57.192657
12.742500 3259.000000 57.087652
12.760400 3138.000000 56.017854
12.778200 3218.000000 56.727418
12.796100 3197.000000 56.542020
12.814000 3217.000000 56.718604
12.831900 3309.000000 57.523908
12.849800 3322.000000 57.636794
12.867600 3257.000000 57.070132
12.885500 3222.000000 56.762664
12.903400 3239.000000 56.912213
12.921300 3217.000000 56.718604
12.939200 3215.000000 56.700970
12.957100 3243.000000 56.947344
12.974900 3318.000000 57.602083
12.992800 3324.000000 57.654141
13.010700 3270.000000 57.183914
13.028600 3193.000000 56.506637
13.046500 3220.000000 56.745044
13.064300 3309.000000 57.523908
13.082200 3381.000000 58.146367
13.100100 3169.000000 56.293872
13.118000 3241.000000 56.929781
13.135900 3256.000000 57.061370
13.153700 3152.000000 56.142675
13.171600 3170.000000 56.302753
13.189500 3249.000000 57.000000
13.207400 3133.000000 55.973208
13.225300 3193.000000 56.506637
13.243100 3150.000000 56.124861
13.261000 3021.000000 54.963624
13.278900 3103.000000 55.704578
13.296800 2985.000000 54.635154
13.314700 3043.000000 55.163394
13.332600 2949.000000 54.304696
13.350400 2949.000000 54.304696
13.368300 2977.000000 54.561891
13.386200 2936.000000 54.184869
13.404100 2892.000000 53.777319
13.422000 2902.000000 53.870214
13.439800 2773.000000 52.659282
13.457700 2886.000000 53.721504
13.475600 2821.000000 53.113087
13.493500 2858.000000 53.460266
13.511400 2743.000000 52.373658
13.529200 2715.000000 52.105662
13.547100 2601.000000 51.000000
13.565000 2658.000000 51.555795
13.582900 2604.000000 51.029403
13.600800 2608.000000 51.068581
13.618600 2538.000000 50.378567
13.636500 2529.000000 50.289164
13.654400 2623.000000 51.215232
13.672300 2483.000000 49.829710
13.690200 2544.000000 50.438081
13.708000 2385.000000 48.836462
13.725900 2427.000000 49.264592
13.743800 2352.000000 48.497423
13.761700 2424.000000 49.234135
13.779600 2323.000000 48.197510
13.797500 2350.000000 48.476799
13.815300 2319.000000 48.155997
13.833200 2273.000000 47.675990
13.851100 2219.000000 47.106263
13.869000 2212.000000 47.031904
13.886900 2250.000000 47.434165
13.904700 2195.000000 46.850827
13.922600 2111.000000 45.945620
13.940500 2175.000000 46.636895
13.958400 2107.000000 45.902070
13.976300 2109.000000 45.923850
13.994100 2059.000000 45.376205
14.012000 1951.000000 44.170126
14.029900 2023.000000 44.977772
14.047800 2104.000000 45.869380
14.065700 2088.000000 45.694639
14.083500 1954.000000 44.204072
14.101400 1983.000000 44.530888
14.119300 1953.000000 44.192760
14.137200 1996.000000 44.676616
14.155100 1954.000000 44.204072
14.173000 1913.000000 43.737855
14.190800 1882.000000 43.382024
14.208700 1917.000000 43.783559
14.226600 1868.000000 43.220366
14.244500 1894.000000 43.520110
14.262400 1879.000000 43.347434
14.280200 1824.000000 42.708313
14.298100 1799.000000 42.414620
14.316000 1940.000000 44.045431
14.333900 1871.000000 43.255058
14.351800 1935.000000 43.988635
14.369600 1969.000000 44.373415
14.387500 1923.000000 43.852024
14.405400 1882.000000 43.382024
14.423300 1748.000000 41.809090
14.441200 1732.000000 41.617304
14.459000 1657.000000 40.706265
14.476900 1704.000000 41.279535
14.494800 1745.000000 41.773197
14.512700 1673.000000 40.902323
14.530600 1665.000000 40.804412
14.548500 1665.000000 40.804412
14.566300 1691.000000 41.121770
14.584200 1637.000000 40.459857
14.602100 1620.000000 40.249224
14.620000 1627.000000 40.336088
14.637900 1604.000000 40.049969
14.655700 1593.000000 39.912404
14.673600 1563.000000 39.534795
14.691500 1476.000000 38.418745
14.709400 1569.000000 39.610605
14.727300 1427.000000 37.775654
14.745100 1571.000000 39.635842
14.763000 1522.000000 39.012818
14.780900 1572.000000 39.648455
14.798800 1563.000000 39.534795
14.816700 1476.000000 38.418745
14.834500 1477.000000 38.431758
14.852400 1460.000000 38.209946
14.870300 1466.000000 38.288379
14.888200 1395.000000 37.349699
14.906100 1508.000000 38.832976
14.924000 1447.000000 38.039453
14.941800 1468.000000 38.314488
14.959700 1438.000000 37.920970
14.977600 1478.000000 38.444766
14.995500 1539.000000 39.230090
15.013400 1690.000000 41.109610
15.031200 1844.000000 42.941821
15.049100 1926.000000 43.886217
15.067000 1693.000000 41.146081
15.084900 1580.000000 39.749214
15.102800 1512.000000 38.884444
15.120600 1418.000000 37.656341
15.138500 1504.000000 38.781439
15.156400 1376.000000 37.094474
15.174300 1426.000000 37.762415
15.192200 1564.000000 39.547440
15.210000 1611.000000 40.137264
15.227900 1509.000000 38.845849
15.245800 1478.000000 38.444766
15.263700 1385.000000 37.215588
15.281600 1319.000000 36.318040
15.299400 1384.000000 37.202150
15.317300 1327.000000 36.428011
15.335200 1258.000000 35.468296
15.353100 1310.000000 36.193922
15.371000 1291.000000 35.930488
15.388900 1252.000000 35.383612
15.406700 1260.000000 35.496479
15.424600 1217.000000 34.885527
15.442500 1205.000000 34.713110
15.460400 1188.000000 34.467376
15.478300 1253.000000 35.397740
15.496100 1223.000000 34.971417
15.514000 1235.000000 35.142567
15.531900 1242.000000 35.242020
15.549800 1187.000000 34.452866
15.567700 1198.000000 34.612137
15.585500 1159.000000 34.044089
15.603400 1229.000000 35.057096
15.621300 1217.000000 34.885527
15.639200 1184.000000 34.409301
15.657100 1178.000000 34.322005
15.674900 1257.000000 35.454196
15.692800 1198.000000 34.612137
15.710700 1168.000000 34.176015
15.728600 1129.000000 33.600595
15.746500 1111.000000 33.331667
15.764400 1199.000000 34.626579
15.782200 1155.000000 33.985291
15.800100 1179.000000 34.336569
15.818000 1130.000000 33.615473
15.835900 1145.000000 33.837849
15.853800 1216.000000 34.871192
15.871600 1108.000000 33.286634
15.889500 1148.000000 33.882149
15.907400 1136.000000 33.704599
15.925300 1103.000000 33.211444
15.943200 1081.000000 32.878564
15.961000 1148.000000 33.882149
15.978900 1076.000000 32.802439
15.996800 1080.000000 32.863353
16.014700 1165.000000 34.132096
16.032600 1045.000000 32.326460
16.050400 1072.000000 32.741411
16.068300 1061.000000 32.572995
16.086200 1036.000000 32.186954
16.104100 1042.000000 32.280025
16.122000 1030.000000 32.093613
16.139900 1126.000000 33.555923
16.157700 1096.000000 33.105891
16.175600 1070.000000 32.710854
16.193500 1097.000000 33.120990
16.211400 1058.000000 32.526912
16.229300 1010.000000 31.780497
16.247100 1052.000000 32.434549
16.265000 1049.000000 32.388269
16.282900 999.000000 31.606961
16.300800 1047.000000 32.357379
16.318700 1022.000000 31.968735
16.336500 1036.000000 32.186954
16.354400 1008.000000 31.749016
16.372300 1004.000000 31.685959
16.390200 1022.000000 31.968735
16.408100 1001.000000 31.638584
16.425900 977.000000 31.256999
16.443800 951.000000 30.838288
16.461700 1022.000000 31.968735
16.479600 1085.000000 32.939338
16.497500 981.000000 31.320920
16.515400 1061.000000 32.572995
16.533200 983.000000 31.352831
16.551100 1026.000000 32.031235
16.569000 991.000000 31.480152
16.586900 1008.000000 31.749016
16.604800 950.000000 30.822070
16.622600 993.000000 31.511903
16.640500 955.000000 30.903074
16.658400 931.000000 30.512293
16.676300 971.000000 31.160873
16.694200 1072.000000 32.741411
16.712000 1041.000000 32.264532
16.729900 997.000000 31.575307
16.747800 996.000000 31.559468
16.765700 995.000000 31.543621
16.783600 1049.000000 32.388269
16.801400 1033.000000 32.140317
16.819300 1000.000000 31.622777
16.837200 1064.000000 32.619013
16.855100 917.000000 30.282008
16.873000 965.000000 31.064449
16.890800 1044.000000 32.310989
16.908700 957.000000 30.935417
16.926600 948.000000 30.789609
16.944500 970.000000 31.144823
16.962400 936.000000 30.594117
16.980300 923.000000 30.380915
16.998100 952.000000 30.854497
17.016000 886.000000 29.765752
17.033900 1024.000000 32.000000
17.051800 984.000000 31.368774
17.069700 967.000000 31.096624
17.087500 988.000000 31.432467
17.105400 1014.000000 31.843367
17.123300 942.000000 30.692019
17.141200 912.000000 30.199338
17.159100 955.000000 30.903074
17.176900 948.000000 30.789609
17.194800 986.000000 31.400637
17.212700 946.000000 30.757113
17.230600 989.000000 31.448370
17.248500 981.000000 31.320920
17.266300 970.000000 31.144823
17.284200 934.000000 30.561414
17.302100 1010.000000 31.780497
17.320000 957.000000 30.935417
17.337900 1070.000000 32.710854
17.355800 1063.000000 32.603681
17.373600 1122.000000 33.496268
17.391500 1154.000000 33.970576
17.409400 1226.000000 35.014283
17.427300 1387.000000 37.242449
17.445200 1790.000000 42.308392
17.463000 2311.000000 48.072861
17.480900 2485.000000 49.849774
17.498800 2179.000000 46.679760
17.516700 1979.000000 44.485953
17.534600 1612.000000 40.149720
17.552400 1211.000000 34.799425
17.570300 1068.000000 32.680269
17.588200 1068.000000 32.680269
17.606100 1047.000000 32.357379
17.624000 1059.000000 32.542280
17.641800 1051.000000 32.419130
17.659700 985.000000 31.384710
17.677600 988.000000 31.432467
17.695500 1012.000000 31.811947
17.713400 999.000000 31.606961
17.731300 947.000000 30.773365
17.749100 952.000000 30.854497
17.767000 921.000000 30.347982
17.784900 935.000000 30.577770
17.802800 909.000000 30.149627
17.820700 910.000000 30.166206
17.838500 913.000000 30.215890
17.856400 949.000000 30.805844
17.874300 968.000000 31.112698
17.892200 976.000000 31.240999
17.910100 913.000000 30.215890
17.927900 984.000000 31.368774
17.945800 1010.000000 31.780497
17.963700 956.000000 30.919250
17.981600 929.000000 30.479501
17.999500 930.000000 30.495901
18.017300 933.000000 30.545049
18.035200 981.000000 31.320920
18.053100 978.000000 31.272992
18.071000 910.000000 30.166206
18.088900 992.000000 31.496031
18.106800 958.000000 30.951575
18.124600 991.000000 31.480152
18.142500 1000.000000 31.622777
18.160400 1068.000000 32.680269
18.178300 1083.000000 32.908965
18.196200 1115.000000 33.391616
18.214000 1051.000000 32.419130
18.231900 952.000000 30.854497
18.249800 962.000000 31.016125
18.267700 915.000000 30.248967
18.285600 975.000000 31.224990
18.303400 936.000000 30.594117
18.321300 1000.000000 31.622777
18.339200 904.000000 30.066593
18.357100 913.000000 30.215890
18.375000 889.000000 29.816103
18.392800 946.000000 30.757113
18.410700 883.000000 29.715316
18.428600 912.000000 30.199338
18.446500 936.000000 30.594117
18.464400 894.000000 29.899833
18.482300 990.000000 31.464265
18.500100 946.000000 30.757113
18.518000 1029.000000 32.078030
18.535900 968.000000 31.112698
18.553800 1006.000000 31.717503
18.571700 1005.000000 31.701735
18.589500 1006.000000 31.717503
18.607400 1002.000000 31.654384
18.625300 1027.000000 32.046841
18.643200 1001.000000 31.638584
18.661100 1074.000000 32.771939
18.678900 1042.000000 32.280025
18.696800 1043.000000 32.295511
18.714700 1045.000000 32.326460
18.732600 1013.000000 31.827661
18.750500 1016.000000 31.874755
18.768300 940.000000 30.659419
18.786200 951.000000 30.838288
18.804100 913.000000 30.215890
18.822000 916.000000 30.265492
18.839900 937.000000 30.610456
18.857700 918.000000 30.298515
18.875600 851.000000 29.171904
18.893500 857.000000 29.274562
18.911400 849.000000 29.137605
18.929300 821.000000 28.653098
18.947200 798.000000 28.248894
18.965000 853.000000 29.206164
18.982900 844.000000 29.051678
19.000800 795.000000 28.195744
19.018700 833.000000 28.861739
19.036600 804.000000 28.354894
19.054400 818.000000 28.600699
19.072300 861.000000 29.342802
19.090200 841.000000 29.000000
19.108100 866.000000 29.427878
19.126000 840.000000 28.982753
19.143800 817.000000 28.583212
19.161700 849.000000 29.137605
19.179600 842.000000 29.017236
19.197500 833.000000 28.861739
19.215400 806.000000 28.390139
19.233200 851.000000 29.171904
19.251100 754.000000 27.459060
19.269000 861.000000 29.342802
19.286900 800.000000 28.284271
19.304800 817.000000 28.583212
19.322700 829.000000 28.792360
19.340500 751.000000 27.404379
19.358400 857.000000 29.274562
19.376300 780.000000 27.928480
19.394200 765.000000 27.658633
19.412100 815.000000 28.548205
19.429900 754.000000 27.459060
19.447800 831.000000 28.827071
19.465700 819.000000 28.618176
19.483600 800.000000 28.284271
19.501500 816.000000 28.565714
19.519300 862.000000 29.359837
19.537200 908.000000 30.133038
19.555100 869.000000 29.478806
19.573000 824.000000 28.705400
19.590900 840.000000 28.982753
19.608700 810.000000 28.460499
19.626600 792.000000 28.142495
19.644500 864.000000 29.393877
19.662400 786.000000 28.035692
19.680300 755.000000 27.477263
19.698200 720.000000 26.832816
19.716000 810.000000 28.460499
19.733900 821.000000 28.653098
19.751800 789.000000 28.089144
19.769700 804.000000 28.354894
19.787600 769.000000 27.730849
19.805400 788.000000 28.071338
19.823300 770.000000 27.748874
19.841200 809.000000 28.442925
19.859100 818.000000 28.600699
19.877000 790.000000 28.106939
19.894800 786.000000 28.035692
19.912700 785.000000 28.017851
19.930600 768.000000 27.712813
19.948500 837.000000 28.930952
19.966400 777.000000 27.874720
19.984200 817.000000 28.583212
20.002100 815.000000 28.548205
20.020000 783.000000 27.982137
20.037900 869.000000 29.478806
20.055800 855.000000 29.240383
20.073700 828.000000 28.774989
20.091500 770.000000 27.748874
20.109400 834.000000 28.879058
20.127300 813.000000 28.513155
20.145200 834.000000 28.879058
20.163100 819.000000 28.618176
20.180900 799.000000 28.266588
20.198800 761.000000 27.586228
20.216700 820.000000 28.635642
20.234600 835.000000 28.896367
20.252500 826.000000 28.740216
20.270300 852.000000 29.189039
20.288200 817.000000 28.583212
20.306100 815.000000 28.548205
20.324000 812.000000 28.495614
20.341900 840.000000 28.982753
20.359700 810.000000 28.460499
20.377600 889.000000 29.816103
20.395500 812.000000 28.495614
20.413400 882.000000 29.698485
20.431300 800.000000 28.284271
20.449100 859.000000 29.308702
20.467000 838.000000 28.948230
20.484900 863.000000 29.376862
20.502800 793.000000 28.160256
20.520700 843.000000 29.034462
20.538600 843.000000 29.034462
20.556400 833.000000 28.861739
20.574300 853.000000 29.206164
20.592200 850.000000 29.154759
20.610100 828.000000 28.774989
20.628000 867.000000 29.444864
20.645800 805.000000 28.372522
20.663700 846.000000 29.086079
20.681600 832.000000 28.844410
20.699500 778.000000 27.892651
20.717400 842.000000 29.017236
20.735200 795.000000 28.195744
20.753100 822.000000 28.670542
20.771000 804.000000 28.354894
20.788900 784.000000 28.000000
20.806800 817.000000 28.583212
20.824600 780.000000 27.928480
20.842500 810.000000 28.460499
20.860400 823.000000 28.687977
20.878300 800.000000 28.284271
20.896200 784.000000 28.000000
20.914100 737.000000 27.147744
20.931900 801.000000 28.301943
20.949800 776.000000 27.856777
20.967700 836.000000 28.913665
20.985600 783.000000 27.982137
21.003500 816.000000 28.565714
21.021300 744.000000 27.276363
21.039200 780.000000 27.928480
21.057100 817.000000 28.583212
21.075000 863.000000 29.376862
21.092900 790.000000 28.106939
21.110700 773.000000 27.802878
21.128600 777.000000 27.874720
21.146500 796.000000 28.213472
21.164400 735.000000 27.110883
21.182300 773.000000 27.802878
21.200100 823.000000 28.687977
21.218000 802.000000 28.319605
21.235900 786.000000 28.035692
21.253800 779.000000 27.910571
21.271700 782.000000 27.964263
21.289600 843.000000 29.034462
21.307400 836.000000 28.913665
21.325300 918.000000 30.298515
21.343200 955.000000 30.903074
21.361100 914.000000 30.232433
21.379000 937.000000 30.610456
21.396800 914.000000 30.232433
21.414700 967.000000 31.096624
21.432600 912.000000 30.199338
21.450500 962.000000 31.016125
21.468400 876.000000 29.597297
21.486200 856.000000 29.257478
21.504100 865.000000 29.410882
21.522000 790.000000 28.106939
21.539900 767.000000 27.694765
21.557800 815.000000 28.548205
21.575600 802.000000 28.319605
21.593500 826.000000 28.740216
21.611400 836.000000 28.913665
21.629300 978.000000 31.272992
21.647200 1257.000000 35.454196
21.665100 1312.000000 36.221541
21.682900 930.000000 30.495901
21.700800 991.000000 31.480152
21.718700 993.000000 31.511903
21.736600 871.000000 29.512709
21.754500 731.000000 27.037012
21.772300 722.000000 26.870058
21.790200 753.000000 27.440845
21.808100 737.000000 27.147744
21.826000 728.000000 26.981475
21.843900 696.000000 26.381812
21.861700 677.000000 26.019224
21.879600 721.000000 26.851443
21.897500 674.000000 25.961510
21.915400 640.000000 25.298221
21.933300 668.000000 25.845696
21.951100 725.000000 26.925824
21.969000 681.000000 26.095977
21.986900 704.000000 26.532998
22.004800 666.000000 25.806976
22.022700 729.000000 27.000000
22.040500 661.000000 25.709920
22.058400 734.000000 27.092434
22.076300 650.000000 25.495098
22.094200 705.000000 26.551836
22.112100 701.000000 26.476405
22.130000 742.000000 27.239677
22.147800 754.000000 27.459060
22.165700 740.000000 27.202941
22.183600 699.000000 26.438608
22.201500 669.000000 25.865034
22.219400 701.000000 26.476405
22.237200 666.000000 25.806976
22.255100 682.000000 26.115130
22.273000 652.000000 25.534291
22.290900 672.000000 25.922963
22.308800 631.000000 25.119713
22.326600 663.000000 25.748786
22.344500 680.000000 26.076810
22.362400 654.000000 25.573424
22.380300 673.000000 25.942244
22.398200 630.000000 25.099801
22.416000 653.000000 25.553865
22.433900 628.000000 25.059928
22.451800 631.000000 25.119713
22.469700 641.000000 25.317978
22.487600 659.000000 25.670995
22.505500 605.000000 24.596748
22.523300 619.000000 24.879711
22.541200 654.000000 25.573424
22.559100 658.000000 25.651511
22.577000 610.000000 24.698178
22.594900 646.000000 25.416530
22.612700 594.000000 24.372115
22.630600 664.000000 25.768197
22.648500 576.000000 24.000000
22.666400 612.000000 24.738634
22.684300 653.000000 25.553865
22.702100 665.000000 25.787594
22.720000 627.000000 25.039968
22.737900 650.000000 25.495098
22.755800 578.000000 24.041631
22.773700 623.000000 24.959968
22.791500 603.000000 24.556058
22.809400 577.000000 24.020824
22.827300 647.000000 25.436195
22.845200 610.000000 24.698178
22.863100 619.000000 24.879711
22.881000 640.000000 25.298221
22.898800 641.000000 25.317978
22.916700 604.000000 24.576411
22.934600 619.000000 24.879711
22.952500 647.000000 25.436195
22.970400 638.000000 25.258662
22.988200 583.000000 24.145393
23.006100 731.000000 27.037012
23.024000 780.000000 27.928480
23.041900 722.000000 26.870058
23.059800 739.000000 27.184554
23.077600 648.000000 25.455844
23.095500 649.000000 25.475478
23.113400 690.000000 26.267851
23.131300 616.000000 24.819347
23.149200 621.000000 24.919872
23.167000 642.000000 25.337719
23.184900 603.000000 24.556058
23.202800 595.000000 24.392622
23.220700 609.000000 24.677925
23.238600 598.000000 24.454039
23.256500 567.000000 23.811762
23.274300 620.000000 24.899799
23.292200 575.000000 23.979158
23.310100 614.000000 24.779023
23.328000 590.000000 24.289916
23.345900 624.000000 24.979992
23.363700 589.000000 24.269322
23.381600 577.000000 24.020824
23.399500 577.000000 24.020824
23.417400 579.000000 24.062419
23.435300 566.000000 23.790755
23.453100 641.000000 25.317978
23.471000 597.000000 24.433583
23.488900 564.000000 23.748684
23.506800 540.000000 23.237900
23.524700 619.000000 24.879711
23.542500 605.000000 24.596748
23.560400 584.000000 24.166092
23.578300 620.000000 24.899799
23.596200 605.000000 24.596748
23.614100 604.000000 24.576411
23.632000 614.000000 24.779023
23.649800 615.000000 24.799194
23.667700 596.000000 24.413111
23.685600 554.000000 23.537205
23.703500 586.000000 24.207437
23.721400 614.000000 24.779023
23.739200 639.000000 25.278449
23.757100 601.000000 24.515301
23.775000 568.000000 23.832751
23.792900 581.000000 24.103942
23.810800 570.000000 23.874673
23.828600 569.000000 23.853721
23.846500 549.000000 23.430749
23.864400 581.000000 24.103942
23.882300 604.000000 24.576411
23.900200 575.000000 23.979158
23.918000 537.000000 23.173260
23.935900 582.000000 24.124676
23.953800 574.000000 23.958297
23.971700 529.000000 23.000000
23.989600 531.000000 23.043437
24.007400 535.000000 23.130067
24.025300 561.000000 23.685439
24.043200 600.000000 24.494897
24.061100 596.000000 24.413111
24.079000 583.000000 24.145393
24.096900 576.000000 24.000000
24.114700 612.000000 24.738634
24.132600 569.000000 23.853721
24.150500 569.000000 23.853721
24.168400 549.000000 23.430749
24.186300 588.000000 24.248711
24.204100 572.000000 23.916521
24.222000 559.000000 23.643181
24.239900 591.000000 24.310492
24.257800 543.000000 23.302360
24.275700 535.000000 23.130067
24.293500 558.000000 23.622024
24.311400 581.000000 24.103942
24.329300 523.000000 22.869193
24.347200 558.000000 23.622024
24.365100 587.000000 24.228083
24.382900 565.000000 23.769729
24.400800 552.000000 23.494680
24.418700 577.000000 24.020824
24.436600 547.000000 23.388031
24.454500 560.000000 23.664319
24.472400 555.000000 23.558438
24.490200 517.000000 22.737634
24.508100 512.000000 22.627417
24.526000 587.000000 24.228083
24.543900 593.000000 24.351591
24.561800 554.000000 23.537205
24.579600 534.000000 23.108440
24.597500 523.000000 22.869193
24.615400 526.000000 22.934690
24.633300 556.000000 23.579652
24.651200 554.000000 23.537205
24.669000 510.000000 22.583180
24.686900 527.000000 22.956481
24.704800 563.000000 23.727621
24.722700 527.000000 22.956481
24.740600 543.000000 23.302360
24.758400 545.000000 23.345235
24.776300 490.000000 22.135944
24.794200 562.000000 23.706539
24.812100 527.000000 22.956481
24.830000 544.000000 23.323808
24.847900 539.000000 23.216374
24.865700 547.000000 23.388031
24.883600 538.000000 23.194827
24.901500 553.000000 23.515952
24.919400 589.000000 24.269322
24.937300 639.000000 25.278449
24.955100 768.000000 27.712813
24.973000 979.000000 31.288976
24.990900 1131.000000 33.630343
25.008800 952.000000 30.854497
25.026700 868.000000 29.461840
25.044500 875.000000 29.580399
25.062400 854.000000 29.223278
25.080300 718.000000 26.795522
25.098200 642.000000 25.337719
25.116100 562.000000 23.706539
25.133900 590.000000 24.289916
25.151800 612.000000 24.738634
25.169700 609.000000 24.677925
25.187600 760.000000 27.568098
25.205500 853.000000 29.206164
25.223400 958.000000 30.951575
25.241200 924.000000 30.397368
25.259100 835.000000 28.896367
25.277000 766.000000 27.676705
25.294900 754.000000 27.459060
25.312800 660.000000 25.690465
25.330600 575.000000 23.979158
25.348500 601.000000 24.515301
25.366400 582.000000 24.124676
25.384300 535.000000 23.130067
25.402200 520.000000 22.803509
25.420000 534.000000 23.108440
25.437900 532.000000 23.065125
25.455800 546.000000 23.366643
25.473700 503.000000 22.427661
25.491600 530.000000 23.021729
25.509400 505.000000 22.472205
25.527300 503.000000 22.427661
25.545200 443.000000 21.047565
25.563100 469.000000 21.656408
25.581000 473.000000 21.748563
25.598800 458.000000 21.400935
25.616700 452.000000 21.260292
25.634600 465.000000 21.563859
25.652500 450.000000 21.213203
25.670400 516.000000 22.715633
25.688300 446.000000 21.118712
25.706100 442.000000 21.023796
25.724000 487.000000 22.068076
25.741900 415.000000 20.371549
25.759800 458.000000 21.400935
25.777700 486.000000 22.045408
25.795500 472.000000 21.725561
25.813400 472.000000 21.725561
25.831300 443.000000 21.047565
25.849200 424.000000 20.591260
25.867100 466.000000 21.587033
25.884900 497.000000 22.293497
25.902800 422.000000 20.542639
25.920700 459.000000 21.424285
25.938600 462.000000 21.494185
25.956500 450.000000 21.213203
25.974300 428.000000 20.688161
25.992200 431.000000 20.760539
26.010100 439.000000 20.952327
26.028000 466.000000 21.587033
26.045900 481.000000 21.931712
26.063800 442.000000 21.023796
26.081600 476.000000 21.817424
26.099500 488.000000 22.090722
26.117400 457.000000 21.377558
26.135300 471.000000 21.702534
26.153200 465.000000 21.563859
26.171000 458.000000 21.400935
26.188900 458.000000 21.400935
26.206800 467.000000 21.610183
26.224700 539.000000 23.216374
26.242600 585.000000 24.186773
26.260400 566.000000 23.790755
26.278300 488.000000 22.090722
26.296200 528.000000 22.978251
26.314100 500.000000 22.360680
26.332000 520.000000 22.803509
26.349800 449.000000 21.189620
26.367700 455.000000 21.330729
26.385600 442.000000 21.023796
26.403500 433.000000 20.808652
26.421400 409.000000 20.223748
26.439300 468.000000 21.633308
26.457100 427.000000 20.663978
26.475000 406.000000 20.149442
26.492900 395.000000 19.874607
26.510800 377.000000 19.416488
26.528700 409.000000 20.223748
26.546500 409.000000 20.223748
26.564400 438.000000 20.928450
26.582300 406.000000 20.149442
26.600200 423.000000 20.566964
26.618100 389.000000 19.723083
26.635900 385.000000 19.621417
26.653800 408.000000 20.199010
26.671700 423.000000 20.566964
26.689600 446.000000 21.118712
26.707500 397.000000 19.924859
26.725300 398.000000 19.949937
26.743200 411.000000 20.273135
26.761100 408.000000 20.199010
26.779000 402.000000 20.049938
26.796900 396.000000 19.899749
26.814800 422.000000 20.542639
26.832600 405.000000 20.124612
26.850500 402.000000 20.049938
26.868400 404.000000 20.099751
26.886300 411.000000 20.273135
26.904200 399.000000 19.974984
26.922000 414.000000 20.346990
26.939900 426.000000 20.639767
26.957800 395.000000 19.874607
26.975700 395.000000 19.874607
26.993600 431.000000 20.760539
27.011400 424.000000 20.591260
27.029300 380.000000 19.493589
27.047200 400.000000 20.000000
27.065100 421.000000 20.518285
27.083000 393.000000 19.824228
27.100800 420.000000 20.493902
27.118700 395.000000 19.874607
27.136600 367.000000 19.157244
27.154500 438.000000 20.928450
27.172400 398.000000 19.949937
27.190200 459.000000 21.424285
27.208100 498.000000 22.315914
27.226000 399.000000 19.974984
27.243900 410.000000 20.248457
27.261800 415.000000 20.371549
27.279700 425.000000 20.615528
27.297500 432.000000 20.784610
27.315400 408.000000 20.199010
27.333300 390.000000 19.748418
27.351200 389.000000 19.723083
27.369100 393.000000 19.824228
27.386900 422.000000 20.542639
27.404800 345.000000 18.574176
27.422700 406.000000 20.149442
27.440600 404.000000 20.099751
27.458500 412.000000 20.297783
27.476300 342.000000 18.493242
27.494200 375.000000 19.364917
27.512100 399.000000 19.974984
27.530000 355.000000 18.841444
27.547900 349.000000 18.681542
27.565700 394.000000 19.849433
27.583600 354.000000 18.814888
27.601500 382.000000 19.544820
27.619400 380.000000 19.493589
27.637300 361.000000 19.000000
27.655200 389.000000 19.723083
27.673000 363.000000 19.052559
27.690900 388.000000 19.697716
27.708800 366.000000 19.131126
27.726700 363.000000 19.052559
27.744600 374.000000 19.339080
27.762400 358.000000 18.920888
27.780300 377.000000 19.416488
27.798200 361.000000 19.000000
27.816100 370.000000 19.235384
27.834000 392.000000 19.798990
27.851800 391.000000 19.773720
27.869700 376.000000 19.390719
27.887600 352.000000 18.761663
27.905500 371.000000 19.261360
27.923400 333.000000 18.248288
27.941200 354.000000 18.814888
27.959100 321.000000 17.916473
27.977000 386.000000 19.646883
27.994900 334.000000 18.275667
28.012800 369.000000 19.209373
28.030700 360.000000 18.973666
28.048500 347.000000 18.627936
28.066400 391.000000 19.773720
28.084300 346.000000 18.601075
28.102200 348.000000 18.654758
28.120100 356.000000 18.867962
28.137900 327.000000 18.083141
28.155800 370.000000 19.235384
28.173700 346.000000 18.601075
28.191600 348.000000 18.654758
28.209500 357.000000 18.894444
28.227300 374.000000 19.339080
28.245200 358.000000 18.920888
28.263100 332.000000 18.220867
28.281000 364.000000 19.078784
28.298900 358.000000 18.920888
28.316700 365.000000 19.104973
28.334600 393.000000 19.824228
28.352500 345.000000 18.574176
28.370400 355.000000 18.841444
28.388300 348.000000 18.654758
28.406200 334.000000 18.275667
28.424000 365.000000 19.104973
28.441900 365.000000 19.104973
28.459800 323.000000 17.972201
28.477700 367.000000 19.157244
28.495600 363.000000 19.052559
28.513400 338.000000 18.384776
28.531300 281.000000 16.763055
28.549200 380.000000 19.493589
28.567100 325.000000 18.027756
28.585000 350.000000 18.708287
28.602800 334.000000 18.275667
28.620700 345.000000 18.574176
28.638600 342.000000 18.493242
28.656500 349.000000 18.681542
28.674400 312.000000 17.663522
28.692200 344.000000 18.547237
28.710100 360.000000 18.973666
28.728000 348.000000 18.654758
28.745900 296.000000 17.204651
28.763800 340.000000 18.439089
28.781600 375.000000 19.364917
28.799500 338.000000 18.384776
28.817400 349.000000 18.681542
28.835300 356.000000 18.867962
28.853200 327.000000 18.083141
28.871100 318.000000 17.832555
28.888900 317.000000 17.804494
28.906800 319.000000 17.860571
28.924700 330.000000 18.165902
28.942600 281.000000 16.763055
28.960500 305.000000 17.464249
28.978300 330.000000 18.165902
28.996200 295.000000 17.175564
29.014100 321.000000 17.916473
29.032000 325.000000 18.027756
29.049900 320.000000 17.888544
29.067700 305.000000 17.464249
29.085600 337.000000 18.357560
29.103500 289.000000 17.000000
29.121400 326.000000 18.055470
29.139300 287.000000 16.941074
29.157100 330.000000 18.165902
29.175000 331.000000 18.193405
29.192900 310.000000 17.606817
29.210800 331.000000 18.193405
29.228700 330.000000 18.165902
29.246600 323.000000 17.972201
29.264400 328.000000 18.110770
29.282300 355.000000 18.841444
29.300200 304.000000 17.435596
29.318100 375.000000 19.364917
29.336000 358.000000 18.920888
29.353800 324.000000 18.000000
29.371700 357.000000 18.894444
29.389600 316.000000 17.776389
29.407500 310.000000 17.606817
29.425400 323.000000 17.972201
29.443200 316.000000 17.776389
29.461100 329.000000 18.138357
29.479000 335.000000 18.303005
29.496900 337.000000 18.357560
29.514800 327.000000 18.083141
29.532600 263.000000 16.217275
29.550500 301.000000 17.349352
29.568400 286.000000 16.911535
29.586300 301.000000 17.349352
29.604200 285.000000 16.881943
29.622100 294.000000 17.146428
29.639900 293.000000 17.117243
29.657800 320.000000 17.888544
29.675700 325.000000 18.027756
29.693600 308.000000 17.549929
29.711500 333.000000 18.248288
29.729300 370.000000 19.235384
29.747200 339.000000 18.411953
29.765100 365.000000 19.104973
29.783000 419.000000 20.469489
29.800900 377.000000 19.416488
29.818700 365.000000 19.104973
29.836600 362.000000 19.026298
29.854500 296.000000 17.204651
29.872400 354.000000 18.814888
29.890300 339.000000 18.411953
29.908100 353.000000 18.788294
29.926000 343.000000 18.520259
29.943900 300.000000 17.320508
29.961800 317.000000 17.804494
29.979700 288.000000 16.970563
29.997600 339.000000 18.411953
