# Two-Theta Intensity Error
5.000100 651.000000 25.514702
5.017900 561.000000 23.685439
5.035800 567.000000 23.811762
5.053700 591.000000 24.310492
5.071600 571.000000 23.895606
5.089500 549.000000 23.430749
5.107300 539.000000 23.216374
5.125200 549.000000 23.430749
5.143100 562.000000 23.706539
5.161000 547.000000 23.388031
5.178900 503.000000 22.427661
5.196700 516.000000 22.715633
5.214600 499.000000 22.338308
5.232500 483.000000 21.977261
5.250400 515.000000 22.693611
5.268300 494.000000 22.226111
5.286100 491.000000 22.158520
5.304000 466.000000 21.587033
5.321900 477.000000 21.840330
5.339800 497.000000 22.293497
5.357700 457.000000 21.377558
5.375500 484.000000 22.000000
5.393400 463.000000 21.517435
5.411300 440.000000 20.976177
5.429200 417.000000 20.420578
5.447100 467.000000 21.610183
5.465000 446.000000 21.118712
5.482800 458.000000 21.400935
5.500700 423.000000 20.566964
5.518600 412.000000 20.297783
5.536500 428.000000 20.688161
5.554400 420.000000 20.493902
5.572200 407.000000 20.174241
5.590100 403.000000 20.074860
5.608000 408.000000 20.199010
5.625900 427.000000 20.663978
5.643800 382.000000 19.544820
5.661600 371.000000 19.261360
5.679500 382.000000 19.544820
5.697400 391.000000 19.773720
5.715300 392.000000 19.798990
5.733200 436.000000 20.880613
5.751000 393.000000 19.824228
5.768900 390.000000 19.748418
5.786800 420.000000 20.493902
5.804700 400.000000 20.000000
5.822600 378.000000 19.442222
5.840500 383.000000 19.570386
5.858300 352.000000 18.761663
5.876200 384.000000 19.595918
5.894100 389.000000 19.723083
5.912000 402.000000 20.049938
5.929900 344.000000 18.547237
5.947700 352.000000 18.761663
5.965600 369.000000 19.209373
5.983500 395.000000 19.874607
6.001400 355.000000 18.841444
6.019300 355.000000 18.841444
6.037100 341.000000 18.466185
6.055000 358.000000 18.920888
6.072900 355.000000 18.841444
6.090800 399.000000 19.974984
6.108700 463.000000 21.517435
6.126500 648.000000 25.455844
6.144400 460.000000 21.447611
6.162300 437.000000 20.904545
6.180200 415.000000 20.371549
6.198100 416.000000 20.396078
6.216000 367.000000 19.157244
6.233800 363.000000 19.052559
6.251700 407.000000 20.174241
6.269600 453.000000 21.283797
6.287500 450.000000 21.213203
6.305400 509.000000 22.561028
6.323200 609.000000 24.677925
6.341100 902.000000 30.033315
6.359000 1901.000000 43.600459
6.376900 6460.000000 80.374125
6.394800 19724.000000 140.442159
6.412600 11529.000000 107.373181
6.430500 2153.000000 46.400431
6.448400 727.000000 26.962938
6.466300 523.000000 22.869193
6.484200 414.000000 20.346990
6.502000 391.000000 19.773720
6.519900 401.000000 20.024984
6.537800 343.000000 18.520259
6.555700 359.000000 18.947295
6.573600 347.000000 18.627936
6.591500 311.000000 17.635192
6.609300 301.000000 17.349352
6.627200 310.000000 17.606817
6.645100 319.000000 17.860571
6.663000 293.000000 17.117243
6.680900 297.000000 17.233688
6.698700 275.000000 16.583124
6.716600 281.000000 16.763055
6.734500 261.000000 16.155494
6.752400 274.000000 16.552945
6.770300 267.000000 16.340135
6.788100 241.000000 15.524175
6.806000 259.000000 16.093477
6.823900 251.000000 15.842980
6.841800 225.000000 15.000000
6.859700 276.000000 16.613248
6.877500 241.000000 15.524175
6.895400 233.000000 15.264338
6.913300 231.000000 15.198684
6.931200 226.000000 15.033296
6.949100 235.000000 15.329710
6.966900 218.000000 14.764823
6.984800 242.000000 15.556349
7.002700 238.000000 15.427249
7.020600 215.000000 14.662878
7.038500 232.000000 15.231546
7.056400 247.000000 15.716234
7.074200 250.000000 15.811388
7.092100 234.000000 15.297059
7.110000 222.000000 14.899664
7.127900 208.000000 14.422205
7.145800 190.000000 13.784049
7.163600 236.000000 15.362291
7.181500 221.000000 14.866069
7.199400 174.000000 13.190906
7.217300 221.000000 14.866069
7.235200 207.000000 14.387495
7.253000 185.000000 13.601471
7.270900 202.000000 14.212670
7.288800 219.000000 14.798649
7.306700 200.000000 14.142136
7.324600 176.000000 13.266499
7.342400 206.000000 14.352700
7.360300 180.000000 13.416408
7.378200 201.000000 14.177447
7.396100 205.000000 14.317821
7.414000 192.000000 13.856406
7.431900 236.000000 15.362291
7.449700 203.000000 14.247807
7.467600 196.000000 14.000000
7.485500 194.000000 13.928388
7.503400 207.000000 14.387495
7.521300 183.000000 13.527749
7.539100 206.000000 14.352700
7.557000 189.000000 13.747727
7.574900 177.000000 13.304135
7.592800 169.000000 13.000000
7.610700 180.000000 13.416408
7.628500 205.000000 14.317821
7.646400 175.000000 13.228757
7.664300 173.000000 13.152946
7.682200 184.000000 13.564660
7.700100 170.000000 13.038405
7.717900 177.000000 13.304135
7.735800 189.000000 13.747727
7.753700 187.000000 13.674794
7.771600 167.000000 12.922848
7.789500 159.000000 12.609520
7.807400 172.000000 13.114877
7.825200 137.000000 11.704700
7.843100 178.000000 13.341664
7.861000 191.000000 13.820275
7.878900 161.000000 12.688578
7.896800 155.000000 12.449900
7.914600 194.000000 13.928388
7.932500 165.000000 12.845233
7.950400 187.000000 13.674794
7.968300 164.000000 12.806248
7.986200 156.000000 12.489996
8.004000 141.000000 11.874342
8.021900 137.000000 11.704700
8.039800 161.000000 12.688578
8.057700 161.000000 12.688578
8.075600 188.000000 13.711309
8.093400 168.000000 12.961481
8.111300 160.000000 12.649111
8.129200 141.000000 11.874342
8.147100 175.000000 13.228757
8.165000 157.000000 12.529964
8.182900 177.000000 13.304135
8.200700 171.000000 13.076697
8.218600 154.000000 12.409674
8.236500 134.000000 11.575837
8.254400 136.000000 11.661904
8.272300 141.000000 11.874342
8.290100 143.000000 11.958261
8.308000 153.000000 12.369317
8.325900 167.000000 12.922848
8.343800 146.000000 12.083046
8.361700 159.000000 12.609520
8.379500 162.000000 12.727922
8.397400 135.000000 11.618950
8.415300 168.000000 12.961481
8.433200 140.000000 11.832160
8.451100 162.000000 12.727922
8.468900 158.000000 12.569805
8.486800 166.000000 12.884099
8.504700 163.000000 12.767145
8.522600 157.000000 12.529964
8.540500 176.000000 13.266499
8.558300 145.000000 12.041595
8.576200 149.000000 12.206556
8.594100 177.000000 13.304135
8.612000 151.000000 12.288206
8.629900 157.000000 12.529964
8.647800 175.000000 13.228757
8.665600 153.000000 12.369317
8.683500 155.000000 12.449900
8.701400 147.000000 12.124356
8.719300 159.000000 12.609520
8.737200 150.000000 12.247449
8.755000 152.000000 12.328828
8.772900 153.000000 12.369317
8.790800 135.000000 11.618950
8.808700 130.000000 11.401754
8.826600 132.000000 11.489125
8.844400 169.000000 13.000000
8.862300 147.000000 12.124356
8.880200 163.000000 12.767145
8.898100 157.000000 12.529964
8.916000 156.000000 12.489996
8.933800 169.000000 13.000000
8.951700 154.000000 12.409674
8.969600 144.000000 12.000000
8.987500 155.000000 12.449900
9.005400 146.000000 12.083046
9.023300 133.000000 11.532563
9.041100 151.000000 12.288206
9.059000 156.000000 12.489996
9.076900 139.000000 11.789826
9.094800 143.000000 11.958261
9.112700 134.000000 11.575837
9.130500 121.000000 11.000000
9.148400 150.000000 12.247449
9.166300 166.000000 12.884099
9.184200 142.000000 11.916375
9.202100 137.000000 11.704700
9.219900 155.000000 12.449900
9.237800 147.000000 12.124356
9.255700 123.000000 11.090537
9.273600 140.000000 11.832160
9.291500 151.000000 12.288206
9.309300 139.000000 11.789826
9.327200 170.000000 13.038405
9.345100 141.000000 11.874342
9.363000 151.000000 12.288206
9.380900 128.000000 11.313708
9.398800 144.000000 12.000000
9.416600 141.000000 11.874342
9.434500 161.000000 12.688578
9.452400 140.000000 11.832160
9.470300 153.000000 12.369317
9.488200 132.000000 11.489125
9.506000 138.000000 11.747340
9.523900 149.000000 12.206556
9.541800 150.000000 12.247449
9.559700 143.000000 11.958261
9.577600 138.000000 11.747340
9.595400 133.000000 11.532563
9.613300 142.000000 11.916375
9.631200 144.000000 12.000000
9.649100 146.000000 12.083046
9.667000 126.000000 11.224972
9.684800 142.000000 11.916375
9.702700 132.000000 11.489125
9.720600 148.000000 12.165525
9.738500 173.000000 13.152946
9.756400 123.000000 11.090537
9.774300 148.000000 12.165525
9.792100 128.000000 11.313708
9.810000 143.000000 11.958261
9.827900 120.000000 10.954451
9.845800 130.000000 11.401754
9.863700 137.000000 11.704700
9.881500 133.000000 11.532563
9.899400 118.000000 10.862780
9.917300 123.000000 11.090537
9.935200 139.000000 11.789826
9.953100 124.000000 11.135529
9.970900 111.000000 10.535654
9.988800 110.000000 10.488088
10.006700 137.000000 11.704700
10.024600 126.000000 11.224972
10.042500 137.000000 11.704700
10.060300 110.000000 10.488088
10.078200 139.000000 11.789826
10.096100 135.000000 11.618950
10.114000 141.000000 11.874342
10.131900 131.000000 11.445523
10.149700 133.000000 11.532563
10.167600 108.000000 10.392305
10.185500 115.000000 10.723805
10.203400 123.000000 11.090537
10.221300 143.000000 11.958261
10.239200 115.000000 10.723805
10.257000 122.000000 11.045361
10.274900 128.000000 11.313708
10.292800 131.000000 11.445523
10.310700 137.000000 11.704700
10.328600 112.000000 10.583005
10.346400 125.000000 11.180340
10.364300 140.000000 11.832160
10.382200 103.000000 10.148892
10.400100 132.000000 11.489125
10.418000 115.000000 10.723805
10.435800 116.000000 10.770330
10.453700 124.000000 11.135529
10.471600 127.000000 11.269428
10.489500 118.000000 10.862780
10.507400 135.000000 11.618950
10.525200 119.000000 10.908712
10.543100 121.000000 11.000000
10.561000 123.000000 11.090537
10.578900 110.000000 10.488088
10.596800 109.000000 10.440307
10.614700 108.000000 10.392305
10.632500 121.000000 11.000000
10.650400 120.000000 10.954451
10.668300 93.000000 9.643651
10.686200 131.000000 11.445523
10.704100 119.000000 10.908712
10.721900 112.000000 10.583005
10.739800 112.000000 10.583005
10.757700 91.000000 9.539392
10.775600 114.000000 10.677078
10.793500 111.000000 10.535654
10.811300 113.000000 10.630146
10.829200 124.000000 11.135529
10.847100 116.000000 10.770330
10.865000 125.000000 11.180340
10.882900 106.000000 10.295630
10.900700 109.000000 10.440307
10.918600 113.000000 10.630146
10.936500 116.000000 10.770330
10.954400 120.000000 10.954451
10.972300 117.000000 10.816654
10.990200 109.000000 10.440307
11.008000 107.000000 10.344080
11.025900 94.000000 9.695360
11.043800 95.000000 9.746794
11.061700 120.000000 10.954451
11.079600 109.000000 10.440307
11.097400 106.000000 10.295630
11.115300 112.000000 10.583005
11.133200 118.000000 10.862780
11.151100 128.000000 11.313708
11.169000 187.000000 13.674794
11.186800 283.000000 16.822604
11.204700 200.000000 14.142136
11.222600 118.000000 10.862780
11.240500 100.000000 10.000000
11.258400 150.000000 12.247449
11.276200 128.000000 11.313708
11.294100 124.000000 11.135529
11.312000 135.000000 11.618950
11.329900 121.000000 11.000000
11.347800 119.000000 10.908712
11.365700 168.000000 12.961481
11.383500 116.000000 10.770330
11.401400 140.000000 11.832160
11.419300 108.000000 10.392305
11.437200 127.000000 11.269428
11.455100 113.000000 10.630146
11.472900 137.000000 11.704700
11.490800 128.000000 11.313708
11.508700 145.000000 12.041595
11.526600 151.000000 12.288206
11.544500 145.000000 12.041595
11.562300 143.000000 11.958261
11.580200 182.000000 13.490738
11.598100 215.000000 14.662878
11.616000 298.000000 17.262677
11.633900 545.000000 23.345235
11.651700 1564.000000 39.547440
11.669600 7230.000000 85.029407
11.687500 8687.000000 93.204077
11.705400 6037.000000 77.698134
11.723300 2786.000000 52.782573
11.741200 605.000000 24.596748
11.759000 289.000000 17.000000
11.776900 220.000000 14.832397
11.794800 180.000000 13.416408
11.812700 166.000000 12.884099
11.830600 141.000000 11.874342
11.848400 139.000000 11.789826
11.866300 142.000000 11.916375
11.884200 155.000000 12.449900
11.902100 133.000000 11.532563
11.920000 129.000000 11.357817
11.937800 130.000000 11.401754
11.955700 143.000000 11.958261
11.973600 139.000000 11.789826
11.991500 110.000000 10.488088
12.009400 129.000000 11.357817
12.027200 110.000000 10.488088
12.045100 100.000000 10.000000
12.063000 135.000000 11.618950
12.080900 118.000000 10.862780
12.098800 117.000000 10.816654
12.116600 111.000000 10.535654
12.134500 116.000000 10.770330
12.152400 102.000000 10.099505
12.170300 112.000000 10.583005
12.188200 114.000000 10.677078
12.206100 102.000000 10.099505
12.223900 127.000000 11.269428
12.241800 114.000000 10.677078
12.259700 119.000000 10.908712
12.277600 152.000000 12.328828
12.295500 285.000000 16.881943
12.313300 494.000000 22.226111
12.331200 281.000000 16.763055
12.349100 180.000000 13.416408
12.367000 149.000000 12.206556
12.384900 161.000000 12.688578
12.402700 217.000000 14.730920
12.420600 188.000000 13.711309
12.438500 142.000000 11.916375
12.456400 159.000000 12.609520
12.474300 150.000000 12.247449
12.492100 146.000000 12.083046
12.510000 144.000000 12.000000
12.527900 173.000000 13.152946
12.545800 161.000000 12.688578
12.563700 127.000000 11.269428
12.581600 159.000000 12.609520
12.599400 167.000000 12.922848
12.617300 161.000000 12.688578
12.635200 163.000000 12.767145
12.653100 158.000000 12.569805
12.671000 165.000000 12.845233
12.688800 195.000000 13.964240
12.706700 199.000000 14.106736
12.724600 231.000000 15.198684
12.742500 270.000000 16.431677
12.760400 328.000000 18.110770
12.778200 416.000000 20.396078
12.796100 734.000000 27.092434
12.814000 1240.000000 35.213634
12.831900 3965.000000 62.968246
12.849800 22481.000000 149.936653
12.867600 18585.000000 136.326813
12.885500 15159.000000 123.121891
12.903400 6730.000000 82.036577
12.921300 1733.000000 41.629317
12.939200 1897.000000 43.554563
12.957100 2691.000000 51.874849
12.974900 1809.000000 42.532341
12.992800 1527.000000 39.076847
13.010700 698.000000 26.419690
13.028600 434.000000 20.832667
13.046500 346.000000 18.601075
13.064300 293.000000 17.117243
13.082200 339.000000 18.411953
13.100100 415.000000 20.371549
13.118000 261.000000 16.155494
13.135900 212.000000 14.560220
13.153700 208.000000 14.422205
13.171600 176.000000 13.266499
13.189500 198.000000 14.071247
13.207400 189.000000 13.747727
13.225300 172.000000 13.114877
13.243100 157.000000 12.529964
13.261000 159.000000 12.609520
13.278900 134.000000 11.575837
13.296800 161.000000 12.688578
13.314700 132.000000 11.489125
13.332600 151.000000 12.288206
13.350400 142.000000 11.916375
13.368300 155.000000 12.449900
13.386200 148.000000 12.165525
13.404100 143.000000 11.958261
13.422000 158.000000 12.569805
13.439800 130.000000 11.401754
13.457700 130.000000 11.401754
13.475600 138.000000 11.747340
13.493500 147.000000 12.124356
13.511400 126.000000 11.224972
13.529200 167.000000 12.922848
13.547100 142.000000 11.916375
13.565000 162.000000 12.727922
13.582900 184.000000 13.564660
13.600800 276.000000 16.613248
13.618600 387.000000 19.672316
13.636500 740.000000 27.202941
13.654400 3130.000000 55.946403
13.672300 11616.000000 107.777549
13.690200 7437.000000 86.238043
13.708000 6434.000000 80.212219
13.725900 2908.000000 53.925875
13.743800 545.000000 23.345235
13.761700 285.000000 16.881943
13.779600 224.000000 14.966630
13.797500 161.000000 12.688578
13.815300 168.000000 12.961481
13.833200 157.000000 12.529964
13.851100 148.000000 12.165525
13.869000 142.000000 11.916375
13.886900 120.000000 10.954451
13.904700 124.000000 11.135529
13.922600 124.000000 11.135529
13.940500 125.000000 11.180340
13.958400 143.000000 11.958261
13.976300 107.000000 10.344080
13.994100 96.000000 9.797959
14.012000 115.000000 10.723805
14.029900 96.000000 9.797959
14.047800 102.000000 10.099505
14.065700 119.000000 10.908712
14.083500 102.000000 10.099505
14.101400 96.000000 9.797959
14.119300 111.000000 10.535654
14.137200 112.000000 10.583005
14.155100 94.000000 9.695360
14.173000 128.000000 11.313708
14.190800 94.000000 9.695360
14.208700 100.000000 10.000000
14.226600 110.000000 10.488088
14.244500 95.000000 9.746794
14.262400 98.000000 9.899495
14.280200 89.000000 9.433981
14.298100 90.000000 9.486833
14.316000 104.000000 10.198039
14.333900 92.000000 9.591663
14.351800 93.000000 9.643651
14.369600 104.000000 10.198039
14.387500 102.000000 10.099505
14.405400 106.000000 10.295630
14.423300 102.000000 10.099505
14.441200 75.000000 8.660254
14.459000 97.000000 9.848858
14.476900 104.000000 10.198039
14.494800 103.000000 10.148892
14.512700 87.000000 9.327379
14.530600 107.000000 10.344080
14.548500 101.000000 10.049876
14.566300 100.000000 10.000000
14.584200 96.000000 9.797959
14.602100 106.000000 10.295630
14.620000 86.000000 9.273618
14.637900 91.000000 9.539392
14.655700 113.000000 10.630146
14.673600 99.000000 9.949874
14.691500 109.000000 10.440307
14.709400 113.000000 10.630146
14.727300 109.000000 10.440307
14.745100 100.000000 10.000000
14.763000 118.000000 10.862780
14.780900 104.000000 10.198039
14.798800 143.000000 11.958261
14.816700 174.000000 13.190906
14.834500 352.000000 18.761663
14.852400 837.000000 28.930952
14.870300 601.000000 24.515301
14.888200 533.000000 23.086793
14.906100 339.000000 18.411953
14.924000 160.000000 12.649111
14.941800 100.000000 10.000000
14.959700 112.000000 10.583005
14.977600 105.000000 10.246951
14.995500 126.000000 11.224972
15.013400 93.000000 9.643651
15.031200 119.000000 10.908712
15.049100 128.000000 11.313708
15.067000 86.000000 9.273618
15.084900 120.000000 10.954451
15.102800 95.000000 9.746794
15.120600 111.000000 10.535654
15.138500 100.000000 10.000000
15.156400 91.000000 9.539392
15.174300 111.000000 10.535654
15.192200 97.000000 9.848858
15.210000 107.000000 10.344080
15.227900 98.000000 9.899495
15.245800 102.000000 10.099505
15.263700 71.000000 8.426150
15.281600 101.000000 10.049876
15.299400 97.000000 9.848858
15.317300 110.000000 10.488088
15.335200 101.000000 10.049876
15.353100 76.000000 8.717798
15.371000 94.000000 9.695360
15.388900 79.000000 8.888194
15.406700 95.000000 9.746794
15.424600 93.000000 9.643651
15.442500 106.000000 10.295630
15.460400 76.000000 8.717798
15.478300 83.000000 9.110434
15.496100 93.000000 9.643651
15.514000 87.000000 9.327379
15.531900 74.000000 8.602325
15.549800 70.000000 8.366600
15.567700 89.000000 9.433981
15.585500 82.000000 9.055385
15.603400 83.000000 9.110434
15.621300 85.000000 9.219544
15.639200 84.000000 9.165151
15.657100 92.000000 9.591663
15.674900 100.000000 10.000000
15.692800 82.000000 9.055385
15.710700 68.000000 8.246211
15.728600 86.000000 9.273618
15.746500 87.000000 9.327379
15.764400 110.000000 10.488088
15.782200 68.000000 8.246211
15.800100 94.000000 9.695360
15.818000 80.000000 8.944272
15.835900 90.000000 9.486833
15.853800 77.000000 8.774964
15.871600 99.000000 9.949874
15.889500 97.000000 9.848858
15.907400 92.000000 9.591663
15.925300 69.000000 8.306624
15.943200 96.000000 9.797959
15.961000 102.000000 10.099505
15.978900 79.000000 8.888194
15.996800 90.000000 9.486833
16.014700 85.000000 9.219544
16.032600 69.000000 8.306624
16.050400 88.000000 9.380832
16.068300 82.000000 9.055385
16.086200 77.000000 8.774964
16.104100 84.000000 9.165151
16.122000 82.000000 9.055385
16.139900 86.000000 9.273618
16.157700 116.000000 10.770330
16.175600 119.000000 10.908712
16.193500 107.000000 10.344080
16.211400 93.000000 9.643651
16.229300 95.000000 9.746794
16.247100 80.000000 8.944272
16.265000 82.000000 9.055385
16.282900 91.000000 9.539392
16.300800 72.000000 8.485281
16.318700 91.000000 9.539392
16.336500 75.000000 8.660254
16.354400 78.000000 8.831761
16.372300 98.000000 9.899495
16.390200 76.000000 8.717798
16.408100 88.000000 9.380832
16.425900 86.000000 9.273618
16.443800 95.000000 9.746794
16.461700 90.000000 9.486833
16.479600 108.000000 10.392305
16.497500 106.000000 10.295630
16.515400 128.000000 11.313708
16.533200 168.000000 12.961481
16.551100 391.000000 19.773720
16.569000 1695.000000 41.170378
16.586900 1070.000000 32.710854
16.604800 789.000000 28.089144
16.622600 800.000000 28.284271
16.640500 245.000000 15.652476
16.658400 157.000000 12.529964
16.676300 102.000000 10.099505
16.694200 99.000000 9.949874
16.712000 100.000000 10.000000
16.729900 101.000000 10.049876
16.747800 99.000000 9.949874
16.765700 92.000000 9.591663
16.783600 109.000000 10.440307
16.801400 130.000000 11.401754
16.819300 150.000000 12.247449
16.837200 162.000000 12.727922
16.855100 229.000000 15.132746
16.873000 809.000000 28.442925
16.890800 2850.000000 53.385391
16.908700 1822.000000 42.684892
16.926600 1163.000000 34.102786
16.944500 1434.000000 37.868192
16.962400 398.000000 19.949937
16.980300 169.000000 13.000000
16.998100 135.000000 11.618950
17.016000 111.000000 10.535654
17.033900 106.000000 10.295630
17.051800 103.000000 10.148892
17.069700 102.000000 10.099505
17.087500 83.000000 9.110434
17.105400 103.000000 10.148892
17.123300 115.000000 10.723805
17.141200 110.000000 10.488088
17.159100 152.000000 12.328828
17.176900 233.000000 15.264338
17.194800 295.000000 17.175564
17.212700 219.000000 14.798649
17.230600 236.000000 15.362291
17.248500 175.000000 13.228757
17.266300 132.000000 11.489125
17.284200 100.000000 10.000000
17.302100 92.000000 9.591663
17.320000 92.000000 9.591663
17.337900 103.000000 10.148892
17.355800 74.000000 8.602325
17.373600 83.000000 9.110434
17.391500 108.000000 10.392305
17.409400 84.000000 9.165151
17.427300 82.000000 9.055385
17.445200 86.000000 9.273618
17.463000 83.000000 9.110434
17.480900 89.000000 9.433981
17.498800 82.000000 9.055385
17.516700 78.000000 8.831761
17.534600 83.000000 9.110434
17.552400 111.000000 10.535654
17.570300 74.000000 8.602325
17.588200 88.000000 9.380832
17.606100 89.000000 9.433981
17.624000 77.000000 8.774964
17.641800 90.000000 9.486833
17.659700 109.000000 10.440307
17.677600 109.000000 10.440307
17.695500 97.000000 9.848858
17.713400 101.000000 10.049876
17.731300 260.000000 16.124515
17.749100 951.000000 30.838288
17.767000 689.000000 26.248809
17.784900 386.000000 19.646883
17.802800 609.000000 24.677925
17.820700 321.000000 17.916473
17.838500 173.000000 13.152946
17.856400 142.000000 11.916375
17.874300 124.000000 11.135529
17.892200 100.000000 10.000000
17.910100 86.000000 9.273618
17.927900 85.000000 9.219544
17.945800 81.000000 9.000000
17.963700 92.000000 9.591663
17.981600 87.000000 9.327379
17.999500 82.000000 9.055385
18.017300 73.000000 8.544004
18.035200 74.000000 8.602325
18.053100 91.000000 9.539392
18.071000 66.000000 8.124038
18.088900 90.000000 9.486833
18.106800 78.000000 8.831761
18.124600 99.000000 9.949874
18.142500 81.000000 9.000000
18.160400 89.000000 9.433981
18.178300 82.000000 9.055385
18.196200 69.000000 8.306624
18.214000 86.000000 9.273618
18.231900 88.000000 9.380832
18.249800 94.000000 9.695360
18.267700 80.000000 8.944272
18.285600 88.000000 9.380832
18.303400 83.000000 9.110434
18.321300 80.000000 8.944272
18.339200 92.000000 9.591663
18.357100 84.000000 9.165151
18.375000 63.000000 7.937254
18.392800 86.000000 9.273618
18.410700 85.000000 9.219544
18.428600 94.000000 9.695360
18.446500 85.000000 9.219544
18.464400 97.000000 9.848858
18.482300 99.000000 9.949874
18.500100 99.000000 9.949874
18.518000 86.000000 9.273618
18.535900 82.000000 9.055385
18.553800 96.000000 9.797959
18.571700 117.000000 10.816654
18.589500 105.000000 10.246951
18.607400 137.000000 11.704700
18.625300 182.000000 13.490738
18.643200 378.000000 19.442222
18.661100 321.000000 17.916473
18.678900 156.000000 12.489996
18.696800 124.000000 11.135529
18.714700 100.000000 10.000000
18.732600 107.000000 10.344080
18.750500 112.000000 10.583005
18.768300 129.000000 11.357817
18.786200 143.000000 11.958261
18.804100 122.000000 11.045361
18.822000 118.000000 10.862780
18.839900 99.000000 9.949874
18.857700 94.000000 9.695360
18.875600 99.000000 9.949874
18.893500 100.000000 10.000000
18.911400 105.000000 10.246951
18.929300 116.000000 10.770330
18.947200 113.000000 10.630146
18.965000 113.000000 10.630146
18.982900 137.000000 11.704700
19.000800 133.000000 11.532563
19.018700 126.000000 11.224972
19.036600 104.000000 10.198039
19.054400 110.000000 10.488088
19.072300 101.000000 10.049876
19.090200 122.000000 11.045361
19.108100 138.000000 11.747340
19.126000 131.000000 11.445523
19.143800 152.000000 12.328828
19.161700 140.000000 11.832160
19.179600 143.000000 11.958261
19.197500 149.000000 12.206556
19.215400 175.000000 13.228757
19.233200 175.000000 13.228757
19.251100 174.000000 13.190906
19.269000 296.000000 17.204651
19.286900 826.000000 28.740216
19.304800 727.000000 26.962938
19.322700 442.000000 21.023796
19.340500 621.000000 24.919872
19.358400 505.000000 22.472205
19.376300 390.000000 19.748418
19.394200 457.000000 21.377558
19.412100 582.000000 24.124676
19.429900 665.000000 25.787594
19.447800 1079.000000 32.848135
19.465700 3113.000000 55.794265
19.483600 17475.000000 132.193041
19.501500 15275.000000 123.592071
19.519300 4457.000000 66.760767
19.537200 10935.000000 104.570550
19.555100 6175.000000 78.581168
19.573000 1394.000000 37.336309
19.590900 671.000000 25.903668
19.608700 455.000000 21.330729
19.626600 375.000000 19.364917
19.644500 342.000000 18.493242
19.662400 306.000000 17.492856
19.680300 257.000000 16.031220
19.698200 287.000000 16.941074
19.716000 277.000000 16.643317
19.733900 257.000000 16.031220
19.751800 263.000000 16.217275
19.769700 265.000000 16.278821
19.787600 327.000000 18.083141
19.805400 441.000000 21.000000
19.823300 1040.000000 32.249031
19.841200 1885.000000 43.416587
19.859100 878.000000 29.631065
19.877000 853.000000 29.206164
19.894800 994.000000 31.527766
19.912700 507.000000 22.516660
19.930600 280.000000 16.733201
19.948500 271.000000 16.462078
19.966400 238.000000 15.427249
19.984200 275.000000 16.583124
20.002100 232.000000 15.231546
20.020000 245.000000 15.652476
20.037900 240.000000 15.491933
20.055800 265.000000 16.278821
20.073700 237.000000 15.394804
20.091500 261.000000 16.155494
20.109400 227.000000 15.066519
20.127300 242.000000 15.556349
20.145200 203.000000 14.247807
20.163100 242.000000 15.556349
20.180900 224.000000 14.966630
20.198800 207.000000 14.387495
20.216700 217.000000 14.730920
20.234600 240.000000 15.491933
20.252500 238.000000 15.427249
20.270300 220.000000 14.832397
20.288200 208.000000 14.422205
20.306100 249.000000 15.779734
20.324000 234.000000 15.297059
20.341900 256.000000 16.000000
20.359700 223.000000 14.933185
20.377600 224.000000 14.966630
20.395500 241.000000 15.524175
20.413400 225.000000 15.000000
20.431300 190.000000 13.784049
20.449100 215.000000 14.662878
20.467000 202.000000 14.212670
20.484900 234.000000 15.297059
20.502800 234.000000 15.297059
20.520700 211.000000 14.525839
20.538600 227.000000 15.066519
20.556400 213.000000 14.594520
20.574300 218.000000 14.764823
20.592200 216.000000 14.696938
20.610100 214.000000 14.628739
20.628000 198.000000 14.071247
20.645800 197.000000 14.035669
20.663700 212.000000 14.560220
20.681600 203.000000 14.247807
20.699500 206.000000 14.352700
20.717400 198.000000 14.071247
20.735200 211.000000 14.525839
20.753100 216.000000 14.696938
20.771000 172.000000 13.114877
20.788900 180.000000 13.416408
20.806800 173.000000 13.152946
20.824600 200.000000 14.142136
20.842500 173.000000 13.152946
20.860400 172.000000 13.114877
20.878300 177.000000 13.304135
20.896200 158.000000 12.569805
20.914100 178.000000 13.341664
20.931900 204.000000 14.282857
20.949800 151.000000 12.288206
20.967700 156.000000 12.489996
20.985600 163.000000 12.767145
21.003500 179.000000 13.379088
21.021300 146.000000 12.083046
21.039200 191.000000 13.820275
21.057100 191.000000 13.820275
21.075000 170.000000 13.038405
21.092900 177.000000 13.304135
21.110700 203.000000 14.247807
21.128600 182.000000 13.490738
21.146500 193.000000 13.892444
21.164400 215.000000 14.662878
21.182300 351.000000 18.734994
21.200100 705.000000 26.551836
21.218000 535.000000 23.130067
21.235900 346.000000 18.601075
21.253800 484.000000 22.000000
21.271700 413.000000 20.322401
21.289600 255.000000 15.968719
21.307400 196.000000 14.000000
21.325300 161.000000 12.688578
21.343200 160.000000 12.649111
21.361100 146.000000 12.083046
21.379000 132.000000 11.489125
21.396800 124.000000 11.135529
21.414700 164.000000 12.806248
21.432600 132.000000 11.489125
21.450500 139.000000 11.789826
21.468400 149.000000 12.206556
21.486200 128.000000 11.313708
21.504100 126.000000 11.224972
21.522000 118.000000 10.862780
21.539900 109.000000 10.440307
21.557800 120.000000 10.954451
21.575600 114.000000 10.677078
21.593500 127.000000 11.269428
21.611400 136.000000 11.661904
21.629300 113.000000 10.630146
21.647200 128.000000 11.313708
21.665100 87.000000 9.327379
21.682900 98.000000 9.899495
21.700800 102.000000 10.099505
21.718700 102.000000 10.099505
21.736600 105.000000 10.246951
21.754500 106.000000 10.295630
21.772300 94.000000 9.695360
21.790200 118.000000 10.862780
21.808100 116.000000 10.770330
21.826000 118.000000 10.862780
21.843900 104.000000 10.198039
21.861700 93.000000 9.643651
21.879600 121.000000 11.000000
21.897500 121.000000 11.000000
21.915400 127.000000 11.269428
21.933300 83.000000 9.110434
21.951100 102.000000 10.099505
21.969000 92.000000 9.591663
21.986900 103.000000 10.148892
22.004800 109.000000 10.440307
22.022700 91.000000 9.539392
22.040500 100.000000 10.000000
22.058400 99.000000 9.949874
22.076300 115.000000 10.723805
22.094200 91.000000 9.539392
22.112100 107.000000 10.344080
22.130000 103.000000 10.148892
22.147800 124.000000 11.135529
22.165700 88.000000 9.380832
22.183600 91.000000 9.539392
22.201500 85.000000 9.219544
22.219400 107.000000 10.344080
22.237200 90.000000 9.486833
22.255100 107.000000 10.344080
22.273000 84.000000 9.165151
22.290900 76.000000 8.717798
22.308800 95.000000 9.746794
22.326600 107.000000 10.344080
22.344500 100.000000 10.000000
22.362400 94.000000 9.695360
22.380300 96.000000 9.797959
22.398200 104.000000 10.198039
22.416000 90.000000 9.486833
22.433900 78.000000 8.831761
22.451800 115.000000 10.723805
22.469700 95.000000 9.746794
22.487600 95.000000 9.746794
22.505500 88.000000 9.380832
22.523300 92.000000 9.591663
22.541200 95.000000 9.746794
22.559100 118.000000 10.862780
22.577000 100.000000 10.000000
22.594900 98.000000 9.899495
22.612700 114.000000 10.677078
22.630600 99.000000 9.949874
22.648500 134.000000 11.575837
22.666400 115.000000 10.723805
22.684300 110.000000 10.488088
22.702100 183.000000 13.527749
22.720000 271.000000 16.462078
22.737900 201.000000 14.177447
22.755800 159.000000 12.609520
22.773700 174.000000 13.190906
22.791500 199.000000 14.106736
22.809400 140.000000 11.832160
22.827300 136.000000 11.661904
22.845200 121.000000 11.000000
22.863100 202.000000 14.212670
22.881000 561.000000 23.685439
22.898800 1264.000000 35.552778
22.916700 669.000000 25.865034
22.934600 342.000000 18.493242
22.952500 645.000000 25.396850
22.970400 546.000000 23.366643
22.988200 242.000000 15.556349
23.006100 152.000000 12.328828
23.024000 146.000000 12.083046
23.041900 129.000000 11.357817
23.059800 137.000000 11.704700
23.077600 131.000000 11.445523
23.095500 187.000000 13.674794
23.113400 245.000000 15.652476
23.131300 620.000000 24.899799
23.149200 1048.000000 32.372828
23.167000 1101.000000 33.181320
23.184900 761.000000 27.586228
23.202800 644.000000 25.377155
23.220700 609.000000 24.677925
23.238600 521.000000 22.825424
23.256500 232.000000 15.231546
23.274300 151.000000 12.288206
23.292200 147.000000 12.124356
23.310100 131.000000 11.445523
23.328000 107.000000 10.344080
23.345900 129.000000 11.357817
23.363700 131.000000 11.445523
23.381600 112.000000 10.583005
23.399500 126.000000 11.224972
23.417400 105.000000 10.246951
23.435300 125.000000 11.180340
23.453100 137.000000 11.704700
23.471000 196.000000 14.000000
23.488900 165.000000 12.845233
23.506800 124.000000 11.135529
23.524700 152.000000 12.328828
23.542500 162.000000 12.727922
23.560400 120.000000 10.954451
23.578300 114.000000 10.677078
23.596200 121.000000 11.000000
23.614100 102.000000 10.099505
23.632000 121.000000 11.000000
23.649800 107.000000 10.344080
23.667700 99.000000 9.949874
23.685600 76.000000 8.717798
23.703500 106.000000 10.295630
23.721400 132.000000 11.489125
23.739200 104.000000 10.198039
23.757100 128.000000 11.313708
23.775000 98.000000 9.899495
23.792900 116.000000 10.770330
23.810800 102.000000 10.099505
23.828600 103.000000 10.148892
23.846500 142.000000 11.916375
23.864400 202.000000 14.212670
23.882300 166.000000 12.884099
23.900200 124.000000 11.135529
23.918000 134.000000 11.575837
23.935900 182.000000 13.490738
23.953800 156.000000 12.489996
23.971700 141.000000 11.874342
23.989600 137.000000 11.704700
24.007400 119.000000 10.908712
24.025300 122.000000 11.045361
24.043200 105.000000 10.246951
24.061100 97.000000 9.848858
24.079000 129.000000 11.357817
24.096900 108.000000 10.392305
24.114700 121.000000 11.000000
24.132600 111.000000 10.535654
24.150500 121.000000 11.000000
24.168400 115.000000 10.723805
24.186300 102.000000 10.099505
24.204100 121.000000 11.000000
24.222000 127.000000 11.269428
24.239900 115.000000 10.723805
24.257800 111.000000 10.535654
24.275700 119.000000 10.908712
24.293500 113.000000 10.630146
24.311400 123.000000 11.090537
24.329300 110.000000 10.488088
24.347200 123.000000 11.090537
24.365100 110.000000 10.488088
24.382900 108.000000 10.392305
24.400800 133.000000 11.532563
24.418700 105.000000 10.246951
24.436600 136.000000 11.661904
24.454500 124.000000 11.135529
24.472400 118.000000 10.862780
24.490200 126.000000 11.224972
24.508100 127.000000 11.269428
24.526000 121.000000 11.000000
24.543900 137.000000 11.704700
24.561800 151.000000 12.288206
24.579600 161.000000 12.688578
24.597500 153.000000 12.369317
24.615400 289.000000 17.000000
24.633300 1085.000000 32.939338
24.651200 1590.000000 39.874804
24.669000 443.000000 21.047565
24.686900 321.000000 17.916473
24.704800 838.000000 28.948230
24.722700 708.000000 26.608269
24.740600 193.000000 13.892444
24.758400 151.000000 12.288206
24.776300 147.000000 12.124356
24.794200 157.000000 12.529964
24.812100 126.000000 11.224972
24.830000 129.000000 11.357817
24.847900 144.000000 12.000000
24.865700 131.000000 11.445523
24.883600 135.000000 11.618950
24.901500 156.000000 12.489996
24.919400 139.000000 11.789826
24.937300 147.000000 12.124356
24.955100 155.000000 12.449900
24.973000 146.000000 12.083046
24.990900 197.000000 14.035669
25.008800 254.000000 15.937377
25.026700 530.000000 23.021729
25.044500 1046.000000 32.341923
25.062400 549.000000 23.430749
25.080300 346.000000 18.601075
25.098200 479.000000 21.886069
25.116100 529.000000 23.000000
25.133900 318.000000 17.832555
25.151800 202.000000 14.212670
25.169700 179.000000 13.379088
25.187600 142.000000 11.916375
25.205500 123.000000 11.090537
25.223400 154.000000 12.409674
25.241200 126.000000 11.224972
25.259100 159.000000 12.609520
25.277000 149.000000 12.206556
25.294900 120.000000 10.954451
25.312800 121.000000 11.000000
25.330600 121.000000 11.000000
25.348500 109.000000 10.440307
25.366400 134.000000 11.575837
25.384300 113.000000 10.630146
25.402200 109.000000 10.440307
25.420000 134.000000 11.575837
25.437900 114.000000 10.677078
25.455800 113.000000 10.630146
25.473700 136.000000 11.661904
25.491600 112.000000 10.583005
25.509400 121.000000 11.000000
25.527300 129.000000 11.357817
25.545200 139.000000 11.789826
25.563100 233.000000 15.264338
25.581000 166.000000 12.884099
25.598800 126.000000 11.224972
25.616700 124.000000 11.135529
25.634600 180.000000 13.416408
25.652500 142.000000 11.916375
25.670400 119.000000 10.908712
25.688300 127.000000 11.269428
25.706100 126.000000 11.224972
25.724000 125.000000 11.180340
25.741900 108.000000 10.392305
25.759800 145.000000 12.041595
25.777700 216.000000 14.696938
25.795500 393.000000 19.824228
25.813400 258.000000 16.062378
25.831300 176.000000 13.266499
25.849200 202.000000 14.212670
25.867100 284.000000 16.852300
25.884900 204.000000 14.282857
25.902800 150.000000 12.247449
25.920700 112.000000 10.583005
25.938600 120.000000 10.954451
25.956500 118.000000 10.862780
25.974300 143.000000 11.958261
25.992200 134.000000 11.575837
26.010100 199.000000 14.106736
26.028000 332.000000 18.220867
26.045900 351.000000 18.734994
26.063800 211.000000 14.525839
26.081600 226.000000 15.033296
26.099500 236.000000 15.362291
26.117400 210.000000 14.491377
26.135300 161.000000 12.688578
26.153200 140.000000 11.832160
26.171000 130.000000 11.401754
26.188900 124.000000 11.135529
26.206800 106.000000 10.295630
26.224700 109.000000 10.440307
26.242600 129.000000 11.357817
26.260400 119.000000 10.908712
26.278300 150.000000 12.247449
26.296200 162.000000 12.727922
26.314100 112.000000 10.583005
26.332000 139.000000 11.789826
26.349800 167.000000 12.922848
26.367700 185.000000 13.601471
26.385600 314.000000 17.720045
26.403500 1058.000000 32.526912
26.421400 1319.000000 36.318040
26.439300 512.000000 22.627417
26.457100 330.000000 18.165902
26.475000 660.000000 25.690465
26.492900 670.000000 25.884358
26.510800 301.000000 17.349352
26.528700 165.000000 12.845233
26.546500 136.000000 11.661904
26.564400 122.000000 11.045361
26.582300 138.000000 11.747340
26.600200 167.000000 12.922848
26.618100 277.000000 16.643317
26.635900 217.000000 14.730920
26.653800 128.000000 11.313708
26.671700 100.000000 10.000000
26.689600 188.000000 13.711309
26.707500 148.000000 12.165525
26.725300 98.000000 9.899495
26.743200 85.000000 9.219544
26.761100 102.000000 10.099505
26.779000 124.000000 11.135529
26.796900 77.000000 8.774964
26.814800 98.000000 9.899495
26.832600 111.000000 10.535654
26.850500 88.000000 9.380832
26.868400 108.000000 10.392305
26.886300 112.000000 10.583005
26.904200 100.000000 10.000000
26.922000 118.000000 10.862780
26.939900 112.000000 10.583005
26.957800 113.000000 10.630146
26.975700 103.000000 10.148892
26.993600 93.000000 9.643651
27.011400 110.000000 10.488088
27.029300 123.000000 11.090537
27.047200 172.000000 13.114877
27.065100 456.000000 21.354157
27.083000 568.000000 23.832751
27.100800 246.000000 15.684387
27.118700 153.000000 12.369317
27.136600 283.000000 16.822604
27.154500 354.000000 18.814888
27.172400 186.000000 13.638182
27.190200 131.000000 11.445523
27.208100 89.000000 9.433981
27.226000 112.000000 10.583005
27.243900 78.000000 8.831761
27.261800 92.000000 9.591663
27.279700 93.000000 9.643651
27.297500 86.000000 9.273618
27.315400 85.000000 9.219544
27.333300 91.000000 9.539392
27.351200 83.000000 9.110434
27.369100 92.000000 9.591663
27.386900 79.000000 8.888194
27.404800 92.000000 9.591663
27.422700 84.000000 9.165151
27.440600 99.000000 9.949874
27.458500 101.000000 10.049876
27.476300 91.000000 9.539392
27.494200 90.000000 9.486833
27.512100 106.000000 10.295630
27.530000 111.000000 10.535654
27.547900 140.000000 11.832160
27.565700 149.000000 12.206556
27.583600 178.000000 13.341664
27.601500 803.000000 28.337255
27.619400 967.000000 31.096624
27.637300 290.000000 17.029386
27.655200 218.000000 14.764823
27.673000 345.000000 18.574176
27.690900 594.000000 24.372115
27.708800 227.000000 15.066519
27.726700 138.000000 11.747340
27.744600 103.000000 10.148892
27.762400 94.000000 9.695360
27.780300 87.000000 9.327379
27.798200 78.000000 8.831761
27.816100 91.000000 9.539392
27.834000 84.000000 9.165151
27.851800 89.000000 9.433981
27.869700 70.000000 8.366600
27.887600 76.000000 8.717798
27.905500 82.000000 9.055385
27.923400 97.000000 9.848858
27.941200 92.000000 9.591663
27.959100 96.000000 9.797959
27.977000 85.000000 9.219544
27.994900 90.000000 9.486833
28.012800 112.000000 10.583005
28.030700 93.000000 9.643651
28.048500 101.000000 10.049876
28.066400 95.000000 9.746794
28.084300 112.000000 10.583005
28.102200 131.000000 11.445523
28.120100 123.000000 11.090537
28.137900 189.000000 13.747727
28.155800 284.000000 16.852300
28.173700 285.000000 16.881943
28.191600 639.000000 25.278449
28.209500 782.000000 27.964263
28.227300 381.000000 19.519221
28.245200 529.000000 23.000000
28.263100 508.000000 22.538855
28.281000 562.000000 23.706539
28.298900 271.000000 16.462078
28.316700 254.000000 15.937377
28.334600 276.000000 16.613248
28.352500 151.000000 12.288206
28.370400 116.000000 10.770330
28.388300 91.000000 9.539392
28.406200 101.000000 10.049876
28.424000 91.000000 9.539392
28.441900 90.000000 9.486833
28.459800 102.000000 10.099505
28.477700 96.000000 9.797959
28.495600 88.000000 9.380832
28.513400 101.000000 10.049876
28.531300 73.000000 8.544004
28.549200 99.000000 9.949874
28.567100 92.000000 9.591663
28.585000 92.000000 9.591663
28.602800 82.000000 9.055385
28.620700 71.000000 8.426150
28.638600 69.000000 8.306624
28.656500 95.000000 9.746794
28.674400 78.000000 8.831761
28.692200 80.000000 8.944272
28.710100 87.000000 9.327379
28.728000 91.000000 9.539392
28.745900 100.000000 10.000000
28.763800 110.000000 10.488088
28.781600 95.000000 9.746794
28.799500 140.000000 11.832160
28.817400 277.000000 16.643317
28.835300 676.000000 26.000000
28.853200 1248.000000 35.327043
28.871100 539.000000 23.216374
28.888900 282.000000 16.792856
28.906800 327.000000 18.083141
28.924700 672.000000 25.922963
28.942600 462.000000 21.494185
28.960500 191.000000 13.820275
28.978300 160.000000 12.649111
28.996200 126.000000 11.224972
29.014100 159.000000 12.609520
29.032000 246.000000 15.684387
29.049900 269.000000 16.401219
29.067700 199.000000 14.106736
29.085600 144.000000 12.000000
29.103500 140.000000 11.832160
29.121400 208.000000 14.422205
29.139300 157.000000 12.529964
29.157100 121.000000 11.000000
29.175000 88.000000 9.380832
29.192900 101.000000 10.049876
29.210800 96.000000 9.797959
29.228700 95.000000 9.746794
29.246600 99.000000 9.949874
29.264400 93.000000 9.643651
29.282300 132.000000 11.489125
29.300200 197.000000 14.035669
29.318100 142.000000 11.916375
29.336000 102.000000 10.099505
29.353800 123.000000 11.090537
29.371700 161.000000 12.688578
29.389600 251.000000 15.842980
29.407500 500.000000 22.360680
29.425400 1082.000000 32.893768
29.443200 550.000000 23.452079
29.461100 215.000000 14.662878
29.479000 253.000000 15.905974
29.496900 460.000000 21.447611
29.514800 474.000000 21.771541
29.532600 236.000000 15.362291
29.550500 118.000000 10.862780
29.568400 90.000000 9.486833
29.586300 82.000000 9.055385
29.604200 100.000000 10.000000
29.622100 99.000000 9.949874
29.639900 89.000000 9.433981
29.657800 80.000000 8.944272
29.675700 77.000000 8.774964
29.693600 88.000000 9.380832
29.711500 73.000000 8.544004
29.729300 73.000000 8.544004
29.747200 84.000000 9.165151
29.765100 75.000000 8.660254
29.783000 68.000000 8.246211
29.800900 71.000000 8.426150
29.818700 76.000000 8.717798
29.836600 83.000000 9.110434
29.854500 56.000000 7.483315
29.872400 82.000000 9.055385
29.890300 58.000000 7.615773
29.908100 61.000000 7.810250
29.926000 60.000000 7.745967
29.943900 70.000000 8.366600
29.961800 89.000000 9.433981
29.979700 53.000000 7.280110
29.997600 85.000000 9.219544
