# Two-Theta Intensity Error
2.000100 2186.000000 46.754679
2.010300 2024.000000 44.988888
2.020500 1919.000000 43.806392
2.030700 1913.000000 43.737855
2.040900 1811.000000 42.555846
2.051100 1812.000000 42.567593
2.061400 1912.000000 43.726422
2.071600 1820.000000 42.661458
2.081800 1832.000000 42.801869
2.092000 1758.000000 41.928511
2.102200 1894.000000 43.520110
2.112400 1789.000000 42.296572
2.122700 1847.000000 42.976738
2.132900 1800.000000 42.426407
2.143100 1843.000000 42.930176
2.153300 1837.000000 42.860238
2.163500 1859.000000 43.116122
2.173800 1736.000000 41.665333
2.184000 1828.000000 42.755117
2.194200 1749.000000 41.821047
2.204400 1792.000000 42.332021
2.214600 1722.000000 41.496988
2.224800 1774.000000 42.118879
2.235100 1823.000000 42.696604
2.245300 1792.000000 42.332021
2.255500 1829.000000 42.766810
2.265700 1920.000000 43.817805
2.275900 1911.000000 43.714986
2.286100 1797.000000 42.391037
2.296400 1835.000000 42.836900
2.306600 1791.000000 42.320208
2.316800 1710.000000 41.352146
2.327000 1807.000000 42.508823
2.337200 1765.000000 42.011903
2.347500 1869.000000 43.231933
2.357700 1889.000000 43.462628
2.367900 1816.000000 42.614552
2.378100 1825.000000 42.720019
2.388300 1885.000000 43.416587
2.398500 1844.000000 42.941821
2.408800 1784.000000 42.237424
2.419000 1781.000000 42.201896
2.429200 1850.000000 43.011626
2.439400 1861.000000 43.139309
2.449600 1785.000000 42.249260
2.459800 1843.000000 42.930176
2.470100 1822.000000 42.684892
2.480300 1812.000000 42.567593
2.490500 1859.000000 43.116122
2.500700 1808.000000 42.520583
2.510900 1839.000000 42.883563
2.521200 1866.000000 43.197222
2.531400 1884.000000 43.405069
2.541600 1904.000000 43.634848
2.551800 1834.000000 42.825226
2.562000 1904.000000 43.634848
2.572200 1955.000000 44.215382
2.582500 1884.000000 43.405069
2.592700 1858.000000 43.104524
2.602900 1873.000000 43.278170
2.613100 1916.000000 43.772137
2.623300 1916.000000 43.772137
2.633500 1912.000000 43.726422
2.643800 1944.000000 44.090815
2.654000 1934.000000 43.977267
2.664200 1817.000000 42.626283
2.674400 1863.000000 43.162484
2.684600 1856.000000 43.081318
2.694900 1900.000000 43.588989
2.705100 1884.000000 43.405069
2.715300 1947.000000 44.124823
2.725500 1888.000000 43.451122
2.735700 1948.000000 44.136153
2.745900 1914.000000 43.749286
2.756200 1858.000000 43.104524
2.766400 1921.000000 43.829214
2.776600 2000.000000 44.721360
2.786800 1994.000000 44.654227
2.797000 1953.000000 44.192760
2.807200 2010.000000 44.833024
2.817500 1934.000000 43.977267
2.827700 1901.000000 43.600459
2.837900 1936.000000 44.000000
2.848100 1996.000000 44.676616
2.858300 1928.000000 43.908997
2.868600 1941.000000 44.056782
2.878800 1892.000000 43.497126
2.889000 1896.000000 43.543082
2.899200 2017.000000 44.911023
2.909400 1940.000000 44.045431
2.919600 1968.000000 44.362146
2.929900 2001.000000 44.732538
2.940100 2044.000000 45.210618
2.950300 1946.000000 44.113490
2.960500 2003.000000 44.754888
2.970700 2005.000000 44.777226
2.980900 1956.000000 44.226689
2.991200 1981.000000 44.508426
3.001400 2044.000000 45.210618
3.011600 2024.000000 44.988888
3.021800 2013.000000 44.866469
3.032000 2037.000000 45.133136
3.042300 1914.000000 43.749286
3.052500 2012.000000 44.855323
3.062700 1953.000000 44.192760
3.072900 2055.000000 45.332108
3.083100 1981.000000 44.508426
3.093300 2057.000000 45.354162
3.103600 1997.000000 44.687806
3.113800 2038.000000 45.144213
3.124000 2042.000000 45.188494
3.134200 2054.000000 45.321077
3.144400 2126.000000 46.108568
3.154600 2208.000000 46.989360
3.164900 2165.000000 46.529560
3.175100 2207.000000 46.978719
3.185300 2151.000000 46.378875
3.195500 2203.000000 46.936127
3.205700 2490.000000 49.899900
3.216000 2670.000000 51.672043
3.226200 2627.000000 51.254268
3.236400 2636.000000 51.341991
3.246600 3294.000000 57.393379
3.256800 3472.000000 58.923679
3.267000 2549.000000 50.487622
3.277300 2123.000000 46.076024
3.287500 2063.000000 45.420260
3.297700 2045.000000 45.221676
3.307900 2116.000000 46.000000
3.318100 2088.000000 45.694639
3.328300 1988.000000 44.586994
3.338600 2129.000000 46.141088
3.348800 2016.000000 44.899889
3.359000 2018.000000 44.922155
3.369200 2020.000000 44.944410
3.379400 2031.000000 45.066617
3.389700 2087.000000 45.683695
3.399900 1989.000000 44.598206
3.410100 2010.000000 44.833024
3.420300 1978.000000 44.474712
3.430500 2011.000000 44.844175
3.440700 2031.000000 45.066617
3.451000 2020.000000 44.944410
3.461200 1998.000000 44.698993
3.471400 2027.000000 45.022217
3.481600 2081.000000 45.617979
3.491800 2000.000000 44.721360
3.502000 2102.000000 45.847574
3.512300 1957.000000 44.237993
3.522500 1972.000000 44.407207
3.532700 1952.000000 44.181444
3.542900 1964.000000 44.317040
3.553100 1992.000000 44.631827
3.563400 1963.000000 44.305756
3.573600 1957.000000 44.237993
3.583800 2014.000000 44.877611
3.594000 2000.000000 44.721360
3.604200 2012.000000 44.855323
3.614400 1947.000000 44.124823
3.624700 2001.000000 44.732538
3.634900 1964.000000 44.317040
3.645100 1945.000000 44.102154
3.655300 1966.000000 44.339599
3.665500 2010.000000 44.833024
3.675700 1915.000000 43.760713
3.686000 1972.000000 44.407207
3.696200 1937.000000 44.011362
3.706400 1953.000000 44.192760
3.716600 1958.000000 44.249294
3.726800 1868.000000 43.220366
3.737100 1906.000000 43.657760
3.747300 1943.000000 44.079474
3.757500 1904.000000 43.634848
3.767700 1919.000000 43.806392
3.777900 1954.000000 44.204072
3.788100 1915.000000 43.760713
3.798400 1930.000000 43.931765
3.808600 1893.000000 43.508620
3.818800 1925.000000 43.874822
3.829000 1958.000000 44.249294
3.839200 2000.000000 44.721360
3.849400 1892.000000 43.497126
3.859700 1887.000000 43.439613
3.869900 1926.000000 43.886217
3.880100 1907.000000 43.669211
3.890300 1901.000000 43.600459
3.900500 1832.000000 42.801869
3.910800 1768.000000 42.047592
3.921000 1892.000000 43.497126
3.931200 1872.000000 43.266615
3.941400 1879.000000 43.347434
3.951600 1827.000000 42.743421
3.961800 1931.000000 43.943145
3.972100 1863.000000 43.162484
3.982300 1987.000000 44.575778
3.992500 1925.000000 43.874822
4.002700 1923.000000 43.852024
4.012900 1893.000000 43.508620
4.023100 1815.000000 42.602817
4.033400 1912.000000 43.726422
4.043600 1808.000000 42.520583
4.053800 1930.000000 43.931765
4.064000 1884.000000 43.405069
4.074200 1806.000000 42.497059
4.084500 1822.000000 42.684892
4.094700 1805.000000 42.485292
4.104900 1756.000000 41.904654
4.115100 1827.000000 42.743421
4.125300 1760.000000 41.952354
4.135500 1879.000000 43.347434
4.145800 1864.000000 43.174066
4.156000 1773.000000 42.107007
4.166200 1827.000000 42.743421
4.176400 1769.000000 42.059482
4.186600 1789.000000 42.296572
4.196800 1700.000000 41.231056
4.207100 1785.000000 42.249260
4.217300 1781.000000 42.201896
4.227500 1771.000000 42.083251
4.237700 1764.000000 42.000000
4.247900 1797.000000 42.391037
4.258200 1782.000000 42.213742
4.268400 1703.000000 41.267421
4.278600 1809.000000 42.532341
4.288800 1690.000000 41.109610
4.299000 1710.000000 41.352146
4.309200 1796.000000 42.379240
4.319500 1795.000000 42.367440
4.329700 1768.000000 42.047592
4.339900 1753.000000 41.868843
4.350100 1797.000000 42.391037
4.360300 1807.000000 42.508823
4.370500 1731.000000 41.605288
4.380800 1723.000000 41.509035
4.391000 1685.000000 41.048752
4.401200 1727.000000 41.557190
4.411400 1664.000000 40.792156
4.421600 1711.000000 41.364236
4.431900 1713.000000 41.388404
4.442100 1704.000000 41.279535
4.452300 1704.000000 41.279535
4.462500 1809.000000 42.532341
4.472700 1683.000000 41.024383
4.482900 1747.000000 41.797129
4.493200 1661.000000 40.755368
4.503400 1628.000000 40.348482
4.513600 1687.000000 41.073106
4.523800 1703.000000 41.267421
4.534000 1719.000000 41.460825
4.544200 1680.000000 40.987803
4.554500 1659.000000 40.730824
4.564700 1669.000000 40.853396
4.574900 1677.000000 40.951190
4.585100 1643.000000 40.533936
4.595300 1674.000000 40.914545
4.605600 1666.000000 40.816663
4.615800 1703.000000 41.267421
4.626000 1649.000000 40.607881
4.636200 1612.000000 40.149720
4.646400 1590.000000 39.874804
4.656600 1608.000000 40.099875
4.666900 1586.000000 39.824616
4.677100 1629.000000 40.360872
4.687300 1678.000000 40.963398
4.697500 1664.000000 40.792156
4.707700 1624.000000 40.298883
4.717900 1619.000000 40.236799
4.728200 1653.000000 40.657103
4.738400 1570.000000 39.623226
4.748600 1587.000000 39.837169
4.758800 1623.000000 40.286474
4.769000 1602.000000 40.024992
4.779300 1643.000000 40.533936
4.789500 1572.000000 39.648455
4.799700 1589.000000 39.862263
4.809900 1652.000000 40.644803
4.820100 1576.000000 39.698866
4.830300 1572.000000 39.648455
4.840600 1613.000000 40.162171
4.850800 1584.000000 39.799497
4.861000 1578.000000 39.724048
4.871200 1610.000000 40.124805
4.881400 1638.000000 40.472213
4.891600 1685.000000 41.048752
4.901900 1563.000000 39.534795
4.912100 1583.000000 39.786933
4.922300 1540.000000 39.242834
4.932500 1544.000000 39.293765
4.942700 1607.000000 40.087405
4.953000 1526.000000 39.064050
4.963200 1550.000000 39.370039
4.973400 1587.000000 39.837169
4.983600 1586.000000 39.824616
4.993800 1542.000000 39.268308
5.004000 1584.000000 39.799497
5.014300 1582.000000 39.774364
5.024500 1581.000000 39.761791
5.034700 1596.000000 39.949969
5.044900 1526.000000 39.064050
5.055100 1561.000000 39.509493
5.065300 1571.000000 39.635842
5.075600 1575.000000 39.686270
5.085800 1551.000000 39.382737
5.096000 1587.000000 39.837169
5.106200 1466.000000 38.288379
5.116400 1545.000000 39.306488
5.126700 1555.000000 39.433488
5.136900 1579.000000 39.736633
5.147100 1555.000000 39.433488
5.157300 1521.000000 39.000000
5.167500 1529.000000 39.102430
5.177700 1564.000000 39.547440
5.188000 1576.000000 39.698866
5.198200 1585.000000 39.812058
5.208400 1538.000000 39.217343
5.218600 1572.000000 39.648455
5.228800 1564.000000 39.547440
5.239000 1569.000000 39.610605
5.249300 1570.000000 39.623226
5.259500 1536.000000 39.191836
5.269700 1508.000000 38.832976
5.279900 1553.000000 39.408121
5.290100 1505.000000 38.794329
5.300400 1560.000000 39.496835
5.310600 1489.000000 38.587563
5.320800 1526.000000 39.064050
5.331000 1473.000000 38.379682
5.341200 1484.000000 38.522721
5.351400 1560.000000 39.496835
5.361700 1519.000000 38.974351
5.371900 1562.000000 39.522146
5.382100 1538.000000 39.217343
5.392300 1527.000000 39.076847
5.402500 1504.000000 38.781439
5.412700 1504.000000 38.781439
5.423000 1490.000000 38.600518
5.433200 1621.000000 40.261644
5.443400 1517.000000 38.948684
5.453600 1548.000000 39.344631
5.463800 1544.000000 39.293765
5.474100 1515.000000 38.923001
5.484300 1540.000000 39.242834
5.494500 1528.000000 39.089641
5.504700 1539.000000 39.230090
5.514900 1550.000000 39.370039
5.525100 1539.000000 39.230090
5.535400 1502.000000 38.755645
5.545600 1526.000000 39.064050
5.555800 1547.000000 39.331921
5.566000 1590.000000 39.874804
5.576200 1606.000000 40.074930
5.586400 1519.000000 38.974351
5.596700 1532.000000 39.140772
5.606900 1539.000000 39.230090
5.617100 1535.000000 39.179076
5.627300 1467.000000 38.301436
5.637500 1595.000000 39.937451
5.647800 1569.000000 39.610605
5.658000 1511.000000 38.871583
5.668200 1583.000000 39.786933
5.678400 1486.000000 38.548671
5.688600 1558.000000 39.471509
5.698800 1564.000000 39.547440
5.709100 1561.000000 39.509493
5.719300 1514.000000 38.910153
5.729500 1542.000000 39.268308
5.739700 1562.000000 39.522146
5.749900 1598.000000 39.974992
5.760100 1569.000000 39.610605
5.770400 1535.000000 39.179076
5.780600 1563.000000 39.534795
5.790800 1559.000000 39.484174
5.801000 1576.000000 39.698866
5.811200 1586.000000 39.824616
5.821500 1578.000000 39.724048
5.831700 1562.000000 39.522146
5.841900 1651.000000 40.632499
5.852100 1533.000000 39.153544
5.862300 1595.000000 39.937451
5.872500 1547.000000 39.331921
5.882800 1525.000000 39.051248
5.893000 1578.000000 39.724048
5.903200 1531.000000 39.127995
5.913400 1586.000000 39.824616
5.923600 1496.000000 38.678159
5.933800 1602.000000 40.024992
5.944100 1586.000000 39.824616
5.954300 1637.000000 40.459857
5.964500 1546.000000 39.319207
5.974700 1524.000000 39.038443
5.984900 1611.000000 40.137264
5.995200 1610.000000 40.124805
6.005400 1649.000000 40.607881
6.015600 1597.000000 39.962482
6.025800 1632.000000 40.398020
6.036000 1595.000000 39.937451
6.046200 1651.000000 40.632499
6.056500 1585.000000 39.812058
6.066700 1686.000000 41.060930
6.076900 1620.000000 40.249224
6.087100 1699.000000 41.218928
6.097300 1639.000000 40.484565
6.107500 1656.000000 40.693980
6.117800 1714.000000 41.400483
6.128000 1687.000000 41.073106
6.138200 1685.000000 41.048752
6.148400 1651.000000 40.632499
6.158600 1706.000000 41.303753
6.168900 1723.000000 41.509035
6.179100 1725.000000 41.533119
6.189300 1709.000000 41.340053
6.199500 1736.000000 41.665333
6.209700 1604.000000 40.049969
6.219900 1714.000000 41.400483
6.230200 1719.000000 41.460825
6.240400 1748.000000 41.809090
6.250600 1694.000000 41.158231
6.260800 1730.000000 41.593269
6.271000 1754.000000 41.880783
6.281200 1758.000000 41.928511
6.291500 1749.000000 41.821047
6.301700 1759.000000 41.940434
6.311900 1787.000000 42.272923
6.322100 1814.000000 42.591079
6.332300 1818.000000 42.638011
6.342600 1720.000000 41.472883
6.352800 1829.000000 42.766810
6.363000 1822.000000 42.684892
6.373200 1903.000000 43.623388
6.383400 1773.000000 42.107007
6.393600 1790.000000 42.308392
6.403900 1781.000000 42.201896
6.414100 1907.000000 43.669211
6.424300 1837.000000 42.860238
6.434500 2003.000000 44.754888
6.444700 1925.000000 43.874822
6.454900 1920.000000 43.817805
6.465200 2063.000000 45.420260
6.475400 2077.000000 45.574115
6.485600 1953.000000 44.192760
6.495800 2080.000000 45.607017
6.506000 1957.000000 44.237993
6.516300 1920.000000 43.817805
6.526500 2053.000000 45.310043
6.536700 2052.000000 45.299007
6.546900 2027.000000 45.022217
6.557100 2025.000000 45.000000
6.567300 2080.000000 45.607017
6.577600 2087.000000 45.683695
6.587800 2146.000000 46.324939
6.598000 2096.000000 45.782093
6.608200 2076.000000 45.563143
6.618400 2183.000000 46.722586
6.628600 2199.000000 46.893496
6.638900 2164.000000 46.518813
6.649100 2149.000000 46.357308
6.659300 2198.000000 46.882833
6.669500 2237.000000 47.296934
6.679700 2291.000000 47.864392
6.690000 2281.000000 47.759816
6.700200 2328.000000 48.249352
6.710400 2296.000000 47.916594
6.720600 2365.000000 48.631266
6.730800 2473.000000 49.729267
6.741000 2424.000000 49.234135
6.751300 2453.000000 49.527770
6.761500 2352.000000 48.497423
6.771700 2504.000000 50.039984
6.781900 2588.000000 50.872389
6.792100 2550.000000 50.497525
6.802300 2578.000000 50.774009
6.812600 2607.000000 51.058790
6.822800 2625.000000 51.234754
6.833000 2536.000000 50.358713
6.843200 2687.000000 51.836281
6.853400 2622.000000 51.205468
6.863700 2698.000000 51.942276
6.873900 2782.000000 52.744668
6.884100 2816.000000 53.065997
6.894300 2765.000000 52.583267
6.904500 2814.000000 53.047149
6.914700 2813.000000 53.037722
6.925000 2743.000000 52.373658
6.935200 2935.000000 54.175640
6.945400 2946.000000 54.277067
6.955600 2920.000000 54.037024
6.965800 2991.000000 54.690036
6.976000 2873.000000 53.600373
6.986300 3047.000000 55.199638
6.996500 2986.000000 54.644304
7.006700 3151.000000 56.133769
7.016900 3054.000000 55.263008
7.027100 3085.000000 55.542776
7.037400 2992.000000 54.699177
7.047600 3092.000000 55.605755
7.057800 3121.000000 55.865911
7.068000 3214.000000 56.692151
7.078200 3233.000000 56.859476
7.088400 3127.000000 55.919585
7.098700 3219.000000 56.736232
7.108900 3274.000000 57.218878
7.119100 3318.000000 57.602083
7.129300 3250.000000 57.008771
7.139500 3286.000000 57.323643
7.149700 3274.000000 57.218878
7.160000 3356.000000 57.930993
7.170200 3327.000000 57.680153
7.180400 3222.000000 56.762664
7.190600 3362.000000 57.982756
7.200800 3426.000000 58.532043
7.211100 3399.000000 58.300943
7.221300 3351.000000 57.887823
7.231500 3319.000000 57.610763
7.241700 3492.000000 59.093147
7.251900 3306.000000 57.497826
7.262100 3576.000000 59.799666
7.272400 3386.000000 58.189346
7.282600 3576.000000 59.799666
7.292800 3627.000000 60.224580
7.303000 3564.000000 59.699246
7.313200 3448.000000 58.719673
7.323500 3495.000000 59.118525
7.333700 3462.000000 58.838763
7.343900 3434.000000 58.600341
7.354100 3572.000000 59.766211
7.364300 3559.000000 59.657355
7.374500 3473.000000 58.932164
7.384800 3550.000000 59.581876
7.395000 3546.000000 59.548300
7.405200 3673.000000 60.605280
7.415400 3674.000000 60.613530
7.425600 3717.000000 60.967204
7.435800 3785.000000 61.522354
7.446100 3795.000000 61.603571
7.456300 3749.000000 61.229078
7.466500 3988.000000 63.150614
7.476700 3923.000000 62.633857
7.486900 4104.000000 64.062470
7.497200 4182.000000 64.668385
7.507400 4141.000000 64.350602
7.517600 4209.000000 64.876806
7.527800 4192.000000 64.745656
7.538000 4401.000000 66.340033
7.548200 4320.000000 65.726707
7.558500 4348.000000 65.939366
7.568700 4393.000000 66.279710
7.578900 4257.000000 65.245690
7.589100 4097.000000 64.007812
7.599300 4050.000000 63.639610
7.609500 3868.000000 62.193247
7.619800 3670.000000 60.580525
7.630000 3663.000000 60.522723
7.640200 3536.000000 59.464275
7.650400 3622.000000 60.183054
7.660600 3497.000000 59.135438
7.670900 3576.000000 59.799666
7.681100 3344.000000 57.827329
7.691300 3412.000000 58.412327
7.701500 3331.000000 57.714816
7.711700 3385.000000 58.180753
7.721900 3270.000000 57.183914
7.732200 3282.000000 57.288742
7.742400 3305.000000 57.489129
7.752600 3291.000000 57.367238
7.762800 3190.000000 56.480085
7.773000 3271.000000 57.192657
7.783200 3229.000000 56.824291
7.793500 3209.000000 56.648036
7.803700 3237.000000 56.894639
7.813900 3254.000000 57.043843
7.824100 3239.000000 56.912213
7.834300 3207.000000 56.630381
7.844600 3205.000000 56.612719
7.854800 3186.000000 56.444663
7.865000 3167.000000 56.276105
7.875200 3244.000000 56.956123
7.885400 3190.000000 56.480085
7.895600 3155.000000 56.169387
7.905900 3066.000000 55.371473
7.916100 3161.000000 56.222771
7.926300 3031.000000 55.054518
7.936500 3134.000000 55.982140
7.946700 3167.000000 56.276105
7.956900 3051.000000 55.235858
7.967200 3063.000000 55.344376
7.977400 3025.000000 55.000000
7.987600 2982.000000 54.607692
7.997800 3115.000000 55.812185
8.008000 3010.000000 54.863467
8.018300 2965.000000 54.451814
8.028500 3055.000000 55.272054
8.038700 3043.000000 55.163394
8.048900 3033.000000 55.072679
8.059100 2998.000000 54.753995
8.069300 3023.000000 54.981815
8.079600 3008.000000 54.845237
8.089800 3007.000000 54.836119
8.100000 2963.000000 54.433446
8.110200 2905.000000 53.898052
8.120400 3105.000000 55.722527
8.130600 2989.000000 54.671748
8.140900 3040.000000 55.136195
8.151100 2943.000000 54.249424
8.161300 3003.000000 54.799635
8.171500 3055.000000 55.272054
8.181700 2875.000000 53.619026
8.192000 2925.000000 54.083269
8.202200 2887.000000 53.730811
8.212400 2991.000000 54.690036
8.222600 2948.000000 54.295488
8.232800 2925.000000 54.083269
8.243000 2942.000000 54.240206
8.253300 3000.000000 54.772256
8.263500 2868.000000 53.553711
8.273700 2925.000000 54.083269
8.283900 2908.000000 53.925875
8.294100 2924.000000 54.074023
8.304300 2932.000000 54.147945
8.314600 2906.000000 53.907328
8.324800 2936.000000 54.184869
8.335000 3009.000000 54.854353
8.345200 2905.000000 53.898052
8.355400 2929.000000 54.120237
8.365700 2940.000000 54.221767
8.375900 2851.000000 53.394756
8.386100 2989.000000 54.671748
8.396300 2974.000000 54.534393
8.406500 2918.000000 54.018515
8.416700 2913.000000 53.972215
8.427000 2849.000000 53.376025
8.437200 2997.000000 54.744863
8.447400 2988.000000 54.662601
8.457600 2892.000000 53.777319
8.467800 2946.000000 54.277067
8.478000 2940.000000 54.221767
8.488300 2966.000000 54.460995
8.498500 2969.000000 54.488531
8.508700 2938.000000 54.203321
8.518900 3000.000000 54.772256
8.529100 3019.000000 54.945427
8.539400 2913.000000 53.972215
8.549600 2990.000000 54.680892
8.559800 3078.000000 55.479726
8.570000 3003.000000 54.799635
8.580200 2988.000000 54.662601
8.590400 2963.000000 54.433446
8.600700 2841.000000 53.301032
8.610900 2929.000000 54.120237
8.621100 2992.000000 54.699177
8.631300 3005.000000 54.817880
8.641500 2942.000000 54.240206
8.651700 2985.000000 54.635154
8.662000 2986.000000 54.644304
8.672200 2924.000000 54.074023
8.682400 3018.000000 54.936327
8.692600 3053.000000 55.253959
8.702800 3091.000000 55.596762
8.713100 3046.000000 55.190579
8.723300 3015.000000 54.909016
8.733500 3042.000000 55.154329
8.743700 3007.000000 54.836119
8.753900 3083.000000 55.524769
8.764100 2993.000000 54.708317
8.774400 2885.000000 53.712196
8.784600 2970.000000 54.497706
8.794800 2989.000000 54.671748
8.805000 3014.000000 54.899909
8.815200 2939.000000 54.212545
8.825400 3098.000000 55.659680
8.835700 3026.000000 55.009090
8.845900 2984.000000 54.626001
8.856100 2978.000000 54.571055
8.866300 3002.000000 54.790510
8.876500 3020.000000 54.954527
8.886800 2986.000000 54.644304
8.897000 2964.000000 54.442630
8.907200 2969.000000 54.488531
8.917400 2987.000000 54.653454
8.927600 3070.000000 55.407581
8.937800 3051.000000 55.235858
8.948100 2981.000000 54.598535
8.958300 2965.000000 54.451814
8.968500 2918.000000 54.018515
8.978700 3008.000000 54.845237
8.988900 3090.000000 55.587768
8.999100 2968.000000 54.479354
9.009400 2962.000000 54.424259
9.019600 3043.000000 55.163394
9.029800 3144.000000 56.071383
9.040000 3047.000000 55.199638
9.050200 3039.000000 55.127126
9.060500 3030.000000 55.045436
9.070700 2987.000000 54.653454
9.080900 3009.000000 54.854353
9.091100 3023.000000 54.981815
9.101300 2999.000000 54.763126
9.111500 3111.000000 55.776339
9.121800 3015.000000 54.909016
9.132000 3153.000000 56.151581
9.142200 3092.000000 55.605755
9.152400 3110.000000 55.767374
9.162600 2897.000000 53.823787
9.172800 3062.000000 55.335341
9.183100 3067.000000 55.380502
9.193300 3131.000000 55.955339
9.203500 3169.000000 56.293872
9.213700 3031.000000 55.054518
9.223900 3079.000000 55.488738
9.234200 3048.000000 55.208695
9.244400 3111.000000 55.776339
9.254600 2998.000000 54.753995
9.264800 3120.000000 55.856960
9.275000 3078.000000 55.479726
9.285200 3075.000000 55.452683
9.295500 3063.000000 55.344376
9.305700 3145.000000 56.080300
9.315900 3051.000000 55.235858
9.326100 3091.000000 55.596762
9.336300 3076.000000 55.461698
9.346500 3093.000000 55.614746
9.356800 3039.000000 55.127126
9.367000 3117.000000 55.830099
9.377200 3056.000000 55.281100
9.387400 3022.000000 54.972721
9.397600 3055.000000 55.272054
9.407900 3159.000000 56.204982
9.418100 3046.000000 55.190579
9.428300 3052.000000 55.244909
9.438500 3067.000000 55.380502
9.448700 3097.000000 55.650696
9.458900 3066.000000 55.371473
9.469200 3135.000000 55.991071
9.479400 3126.000000 55.910643
9.489600 2895.000000 53.805204
9.499800 2966.000000 54.460995
9.510000 3061.000000 55.326305
9.520200 3093.000000 55.614746
9.530500 3028.000000 55.027266
9.540700 3064.000000 55.353410
9.550900 3108.000000 55.749439
9.561100 3107.000000 55.740470
9.571300 3067.000000 55.380502
9.581600 3028.000000 55.027266
9.591800 3077.000000 55.470713
9.602000 3043.000000 55.163394
9.612200 3084.000000 55.533774
9.622400 3099.000000 55.668663
9.632600 2932.000000 54.147945
9.642900 2911.000000 53.953684
9.653100 3080.000000 55.497748
9.663300 3067.000000 55.380502
9.673500 3164.000000 56.249444
9.683700 3018.000000 54.936327
9.693900 3154.000000 56.160484
9.704200 3151.000000 56.133769
9.714400 3158.000000 56.196085
9.724600 3179.000000 56.382621
9.734800 3049.000000 55.217751
9.745000 3016.000000 54.918121
9.755300 3069.000000 55.398556
9.765500 3029.000000 55.036352
9.775700 3055.000000 55.272054
9.785900 3077.000000 55.470713
9.796100 3102.000000 55.695601
9.806300 3050.000000 55.226805
9.816600 3090.000000 55.587768
9.826800 3014.000000 54.899909
9.837000 3040.000000 55.136195
9.847200 3012.000000 54.881691
9.857400 3037.000000 55.108983
9.867600 2999.000000 54.763126
9.877900 3126.000000 55.910643
9.888100 2969.000000 54.488531
9.898300 3055.000000 55.272054
9.908500 2966.000000 54.460995
9.918700 3014.000000 54.899909
9.929000 2980.000000 54.589376
9.939200 3009.000000 54.854353
9.949400 3023.000000 54.981815
9.959600 3074.000000 55.443665
9.969800 2947.000000 54.286278
9.980000 2958.000000 54.387499
9.990300 3110.000000 55.767374
10.000500 2966.000000 54.460995
10.010700 2979.000000 54.580216
10.020900 2940.000000 54.221767
10.031100 2904.000000 53.888774
10.041300 3021.000000 54.963624
10.051600 2997.000000 54.744863
10.061800 2961.000000 54.415071
10.072000 3020.000000 54.954527
10.082200 2946.000000 54.277067
10.092400 2908.000000 53.925875
10.102700 2942.000000 54.240206
10.112900 2914.000000 53.981478
10.123100 2935.000000 54.175640
10.133300 3021.000000 54.963624
10.143500 2959.000000 54.396691
10.153700 2919.000000 54.027771
10.164000 2922.000000 54.055527
10.174200 2922.000000 54.055527
10.184400 2891.000000 53.768020
10.194600 2882.000000 53.684262
10.204800 2876.000000 53.628351
10.215000 2845.000000 53.338541
10.225300 2988.000000 54.662601
10.235500 2935.000000 54.175640
10.245700 3005.000000 54.817880
10.255900 2796.000000 52.877216
10.266100 2969.000000 54.488531
10.276400 2890.000000 53.758720
10.286600 2987.000000 54.653454
10.296800 2896.000000 53.814496
10.307000 2898.000000 53.833075
10.317200 2903.000000 53.879495
10.327400 2861.000000 53.488316
10.337700 2898.000000 53.833075
10.347900 2912.000000 53.962950
10.358100 2893.000000 53.786615
10.368300 2938.000000 54.203321
10.378500 2961.000000 54.415071
10.388700 2942.000000 54.240206
10.399000 2859.000000 53.469618
10.409200 2893.000000 53.786615
10.419400 2899.000000 53.842363
10.429600 2884.000000 53.702886
10.439800 2927.000000 54.101756
10.450100 2933.000000 54.157179
10.460300 2806.000000 52.971691
10.470500 2856.000000 53.441557
10.480700 2883.000000 53.693575
10.490900 2907.000000 53.916602
10.501100 2830.000000 53.197744
10.511400 2914.000000 53.981478
10.521600 2849.000000 53.376025
10.531800 2876.000000 53.628351
10.542000 2855.000000 53.432200
10.552200 2885.000000 53.712196
10.562400 2928.000000 54.110997
10.572700 2919.000000 54.027771
10.582900 2908.000000 53.925875
10.593100 2954.000000 54.350713
10.603300 2888.000000 53.740115
10.613500 2844.000000 53.329167
10.623800 3000.000000 54.772256
10.634000 2942.000000 54.240206
10.644200 2886.000000 53.721504
10.654400 2956.000000 54.369109
10.664600 2835.000000 53.244718
10.674800 2905.000000 53.898052
10.685100 2976.000000 54.552727
10.695300 2920.000000 54.037024
10.705500 2954.000000 54.350713
10.715700 2895.000000 53.805204
10.725900 3016.000000 54.918121
10.736100 2923.000000 54.064776
10.746400 2880.000000 53.665631
10.756600 2981.000000 54.598535
10.766800 2856.000000 53.441557
10.777000 2929.000000 54.120237
10.787200 2962.000000 54.424259
10.797500 2959.000000 54.396691
10.807700 2910.000000 53.944416
10.817900 2912.000000 53.962950
10.828100 2910.000000 53.944416
10.838300 3009.000000 54.854353
10.848500 2842.000000 53.310412
10.858800 2953.000000 54.341513
10.869000 2848.000000 53.366656
10.879200 2915.000000 53.990740
10.889400 2869.000000 53.563047
10.899600 2891.000000 53.768020
10.909800 2907.000000 53.916602
10.920100 2966.000000 54.460995
10.930300 2904.000000 53.888774
10.940500 2919.000000 54.027771
10.950700 2924.000000 54.074023
10.960900 2922.000000 54.055527
10.971200 2938.000000 54.203321
10.981400 2938.000000 54.203321
10.991600 2885.000000 53.712196
11.001800 2877.000000 53.637673
11.012000 2891.000000 53.768020
11.022200 2836.000000 53.254108
11.032500 2961.000000 54.415071
11.042700 2913.000000 53.972215
11.052900 2843.000000 53.319790
11.063100 2829.000000 53.188345
11.073300 2883.000000 53.693575
11.083500 2781.000000 52.735187
11.093800 2769.000000 52.621288
11.104000 2813.000000 53.037722
11.114200 2793.000000 52.848841
11.124400 2764.000000 52.573758
11.134600 2750.000000 52.440442
11.144900 2631.000000 51.293274
11.155100 2686.000000 51.826634
11.165300 2796.000000 52.877216
11.175500 2760.000000 52.535702
11.185700 2656.000000 51.536395
11.195900 2723.000000 52.182373
11.206200 2595.000000 50.941143
11.216400 2624.000000 51.224994
11.226600 2694.000000 51.903757
11.236800 2648.000000 51.458721
11.247000 2643.000000 51.410116
11.257200 2664.000000 51.613952
11.267500 2598.000000 50.970580
11.277700 2516.000000 50.159745
11.287900 2616.000000 51.146847
11.298100 2554.000000 50.537115
11.308300 2647.000000 51.449004
11.318600 2559.000000 50.586559
11.328800 2648.000000 51.458721
11.339000 2511.000000 50.109879
11.349200 2505.000000 50.049975
11.359400 2460.000000 49.598387
11.369600 2369.000000 48.672374
11.379900 2414.000000 49.132474
11.390100 2426.000000 49.254441
11.400300 2387.000000 48.856934
11.410500 2423.000000 49.223978
11.420700 2388.000000 48.867167
11.430900 2532.000000 50.318983
11.441200 2573.000000 50.724747
11.451400 2597.000000 50.960769
11.461600 2593.000000 50.921508
11.471800 2540.000000 50.398413
11.482000 2497.000000 49.969991
11.492300 2366.000000 48.641546
11.502500 2306.000000 48.020829
11.512700 2258.000000 47.518417
11.522900 2230.000000 47.222876
11.533100 2218.000000 47.095647
11.543300 2204.000000 46.946778
11.553600 2281.000000 47.759816
11.563800 2177.000000 46.658333
11.574000 2217.000000 47.085029
11.584200 2198.000000 46.882833
11.594400 2073.000000 45.530210
11.604600 2155.000000 46.421978
11.614900 2111.000000 45.945620
11.625100 2022.000000 44.966654
11.635300 2073.000000 45.530210
11.645500 1988.000000 44.586994
11.655700 2083.000000 45.639895
11.666000 1990.000000 44.609416
11.676200 1988.000000 44.586994
11.686400 1934.000000 43.977267
11.696600 2039.000000 45.155288
11.706800 1969.000000 44.373415
11.717000 1984.000000 44.542115
11.727300 2065.000000 45.442271
11.737500 1942.000000 44.068129
11.747700 1947.000000 44.124823
11.757900 1944.000000 44.090815
11.768100 1904.000000 43.634848
11.778300 1908.000000 43.680659
11.788600 1879.000000 43.347434
11.798800 1901.000000 43.600459
11.809000 1985.000000 44.553339
11.819200 1833.000000 42.813549
11.829400 1836.000000 42.848571
11.839700 1844.000000 42.941821
11.849900 1835.000000 42.836900
11.860100 1845.000000 42.953463
11.870300 1795.000000 42.367440
11.880500 1822.000000 42.684892
11.890700 1801.000000 42.438190
11.901000 1765.000000 42.011903
11.911200 1843.000000 42.930176
11.921400 1723.000000 41.509035
11.931600 1789.000000 42.296572
11.941800 1759.000000 41.940434
11.952000 1676.000000 40.938979
11.962300 1775.000000 42.130749
11.972500 1793.000000 42.343831
11.982700 1781.000000 42.201896
11.992900 1648.000000 40.595566
12.003100 1711.000000 41.364236
12.013400 1606.000000 40.074930
12.023600 1633.000000 40.410395
12.033800 1687.000000 41.073106
12.044000 1658.000000 40.718546
12.054200 1660.000000 40.743098
12.064400 1628.000000 40.348482
12.074700 1728.000000 41.569219
12.084900 1651.000000 40.632499
12.095100 1653.000000 40.657103
12.105300 1613.000000 40.162171
12.115500 1653.000000 40.657103
12.125700 1592.000000 39.899875
12.136000 1620.000000 40.249224
12.146200 1588.000000 39.849718
12.156400 1586.000000 39.824616
12.166600 1637.000000 40.459857
12.176800 1616.000000 40.199502
12.187100 1595.000000 39.937451
12.197300 1555.000000 39.433488
12.207500 1642.000000 40.521599
12.217700 1666.000000 40.816663
12.227900 1775.000000 42.130749
12.238100 1741.000000 41.725292
12.248400 1871.000000 43.255058
12.258600 2181.000000 46.701178
12.268800 2061.000000 45.398238
12.279000 2101.000000 45.836667
12.289200 1961.000000 44.283180
12.299400 1942.000000 44.068129
12.309700 1781.000000 42.201896
12.319900 1600.000000 40.000000
12.330100 1643.000000 40.533936
12.340300 1550.000000 39.370039
12.350500 1552.000000 39.395431
12.360800 1455.000000 38.144462
12.371000 1550.000000 39.370039
12.381200 1618.000000 40.224371
12.391400 1516.000000 38.935845
12.401600 1545.000000 39.306488
12.411800 1560.000000 39.496835
12.422100 1524.000000 39.038443
12.432300 1629.000000 40.360872
12.442500 1597.000000 39.962482
12.452700 1526.000000 39.064050
12.462900 1572.000000 39.648455
12.473100 1628.000000 40.348482
12.483400 1552.000000 39.395431
12.493600 1502.000000 38.755645
12.503800 1510.000000 38.858718
12.514000 1554.000000 39.420807
12.524200 1620.000000 40.249224
12.534500 1476.000000 38.418745
12.544700 1488.000000 38.574603
12.554900 1531.000000 39.127995
12.565100 1499.000000 38.716921
12.575300 1586.000000 39.824616
12.585500 1576.000000 39.698866
12.595800 1480.000000 38.470768
12.606000 1571.000000 39.635842
12.616200 1566.000000 39.572718
12.626400 1536.000000 39.191836
12.636600 1503.000000 38.768544
12.646900 1595.000000 39.937451
12.657100 1500.000000 38.729833
12.667300 1579.000000 39.736633
12.677500 1548.000000 39.344631
12.687700 1546.000000 39.319207
12.697900 1600.000000 40.000000
12.708200 1552.000000 39.395431
12.718400 1600.000000 40.000000
12.728600 1506.000000 38.807216
12.738800 1513.000000 38.897301
12.749000 1652.000000 40.644803
12.759200 1524.000000 39.038443
12.769500 1621.000000 40.261644
12.779700 1582.000000 39.774364
12.789900 1530.000000 39.115214
12.800100 1558.000000 39.471509
12.810300 1602.000000 40.024992
12.820600 1580.000000 39.749214
12.830800 1582.000000 39.774364
12.841000 1596.000000 39.949969
12.851200 1466.000000 38.288379
12.861400 1573.000000 39.661064
12.871600 1631.000000 40.385641
12.881900 1534.000000 39.166312
12.892100 1531.000000 39.127995
12.902300 1626.000000 40.323690
12.912500 1525.000000 39.051248
12.922700 1684.000000 41.036569
12.932900 1569.000000 39.610605
12.943200 1654.000000 40.669399
12.953400 1780.000000 42.190046
12.963600 1645.000000 40.558600
12.973800 1643.000000 40.533936
12.984000 1609.000000 40.112342
12.994300 1637.000000 40.459857
13.004500 1596.000000 39.949969
13.014700 1568.000000 39.597980
13.024900 1581.000000 39.761791
13.035100 1587.000000 39.837169
13.045300 1602.000000 40.024992
13.055600 1532.000000 39.140772
13.065800 1570.000000 39.623226
13.076000 1585.000000 39.812058
13.086200 1602.000000 40.024992
13.096400 1604.000000 40.049969
13.106600 1604.000000 40.049969
13.116900 1601.000000 40.012498
13.127100 1547.000000 39.331921
13.137300 1597.000000 39.962482
13.147500 1587.000000 39.837169
13.157700 1600.000000 40.000000
13.168000 1548.000000 39.344631
13.178200 1554.000000 39.420807
13.188400 1545.000000 39.306488
13.198600 1509.000000 38.845849
13.208800 1574.000000 39.673669
13.219000 1476.000000 38.418745
13.229300 1483.000000 38.509739
13.239500 1536.000000 39.191836
13.249700 1479.000000 38.457769
13.259900 1525.000000 39.051248
13.270100 1445.000000 38.013156
13.280300 1515.000000 38.923001
13.290600 1560.000000 39.496835
13.300800 1514.000000 38.910153
13.311000 1458.000000 38.183766
13.321200 1501.000000 38.742741
13.331400 1416.000000 37.629775
13.341700 1405.000000 37.483330
13.351900 1394.000000 37.336309
13.362100 1483.000000 38.509739
13.372300 1400.000000 37.416574
13.382500 1412.000000 37.576588
13.392700 1392.000000 37.309516
13.403000 1393.000000 37.322915
13.413200 1452.000000 38.105118
13.423400 1422.000000 37.709415
13.433600 1407.000000 37.509999
13.443800 1312.000000 36.221541
13.454000 1365.000000 36.945906
13.464300 1344.000000 36.660606
13.474500 1322.000000 36.359318
13.484700 1306.000000 36.138622
13.494900 1336.000000 36.551334
13.505100 1312.000000 36.221541
13.515400 1413.000000 37.589892
13.525600 1398.000000 37.389838
13.535800 1286.000000 35.860842
13.546000 1296.000000 36.000000
13.556200 1289.000000 35.902646
13.566400 1281.000000 35.791060
13.576700 1301.000000 36.069378
13.586900 1287.000000 35.874782
13.597100 1220.000000 34.928498
13.607300 1242.000000 35.242020
13.617500 1238.000000 35.185224
13.627700 1261.000000 35.510562
13.638000 1229.000000 35.057096
13.648200 1266.000000 35.580894
13.658400 1267.000000 35.594943
13.668600 1238.000000 35.185224
13.678800 1238.000000 35.185224
13.689100 1164.000000 34.117444
13.699300 1196.000000 34.583233
13.709500 1160.000000 34.058773
13.719700 1177.000000 34.307434
13.729900 1153.000000 33.955854
13.740100 1150.000000 33.911650
13.750400 1225.000000 35.000000
13.760600 1171.000000 34.219877
13.770800 1133.000000 33.660065
13.781000 1171.000000 34.219877
13.791200 1121.000000 33.481338
13.801400 1165.000000 34.132096
13.811700 1082.000000 32.893768
13.821900 1082.000000 32.893768
13.832100 1095.000000 33.090784
13.842300 1081.000000 32.878564
13.852500 1084.000000 32.924155
13.862800 1012.000000 31.811947
13.873000 1088.000000 32.984845
13.883200 1029.000000 32.078030
13.893400 1110.000000 33.316662
13.903600 1029.000000 32.078030
13.913800 1092.000000 33.045423
13.924100 1022.000000 31.968735
13.934300 1003.000000 31.670175
13.944500 984.000000 31.368774
13.954700 1061.000000 32.572995
13.964900 1027.000000 32.046841
13.975100 931.000000 30.512293
13.985400 997.000000 31.575307
13.995600 1005.000000 31.701735
14.005800 999.000000 31.606961
14.016000 928.000000 30.463092
14.026200 1008.000000 31.749016
14.036500 1004.000000 31.685959
14.046700 953.000000 30.870698
14.056900 980.000000 31.304952
14.067100 1010.000000 31.780497
14.077300 958.000000 30.951575
14.087500 975.000000 31.224990
14.097800 938.000000 30.626786
14.108000 914.000000 30.232433
14.118200 946.000000 30.757113
14.128400 922.000000 30.364453
14.138600 950.000000 30.822070
14.148800 931.000000 30.512293
14.159100 945.000000 30.740852
14.169300 945.000000 30.740852
14.179500 957.000000 30.935417
14.189700 884.000000 29.732137
14.199900 888.000000 29.799329
14.210200 905.000000 30.083218
14.220400 908.000000 30.133038
14.230600 896.000000 29.933259
14.240800 885.000000 29.748950
14.251000 882.000000 29.698485
14.261200 903.000000 30.049958
14.271500 922.000000 30.364453
14.281700 851.000000 29.171904
14.291900 938.000000 30.626786
14.302100 883.000000 29.715316
14.312300 872.000000 29.529646
14.322500 895.000000 29.916551
14.332800 851.000000 29.171904
14.343000 929.000000 30.479501
14.353200 881.000000 29.681644
14.363400 891.000000 29.849623
14.373600 935.000000 30.577770
14.383900 967.000000 31.096624
14.394100 946.000000 30.757113
14.404300 1082.000000 32.893768
14.414500 1250.000000 35.355339
14.424700 1577.000000 39.711459
14.434900 1761.000000 41.964271
14.445200 1888.000000 43.451122
14.455400 1763.000000 41.988094
14.465600 1574.000000 39.673669
14.475800 1460.000000 38.209946
14.486000 1466.000000 38.288379
14.496200 1188.000000 34.467376
14.506500 1027.000000 32.046841
14.516700 1054.000000 32.465366
14.526900 939.000000 30.643107
14.537100 1005.000000 31.701735
14.547300 1010.000000 31.780497
14.557600 1014.000000 31.843367
14.567800 948.000000 30.789609
14.578000 954.000000 30.886890
14.588200 920.000000 30.331502
14.598400 895.000000 29.916551
14.608600 929.000000 30.479501
14.618900 931.000000 30.512293
14.629100 910.000000 30.166206
14.639300 856.000000 29.257478
14.649500 843.000000 29.034462
14.659700 865.000000 29.410882
14.669900 852.000000 29.189039
14.680200 824.000000 28.705400
14.690400 839.000000 28.965497
14.700600 788.000000 28.071338
14.710800 839.000000 28.965497
14.721000 780.000000 27.928480
14.731300 788.000000 28.071338
14.741500 785.000000 28.017851
14.751700 742.000000 27.239677
14.761900 781.000000 27.946377
14.772100 771.000000 27.766887
14.782300 773.000000 27.802878
14.792600 734.000000 27.092434
14.802800 720.000000 26.832816
14.813000 743.000000 27.258026
14.823200 762.000000 27.604347
14.833400 742.000000 27.239677
14.843600 771.000000 27.766887
14.853900 781.000000 27.946377
14.864100 720.000000 26.832816
14.874300 717.000000 26.776856
14.884500 691.000000 26.286879
14.894700 716.000000 26.758176
14.905000 729.000000 27.000000
14.915200 727.000000 26.962938
14.925400 754.000000 27.459060
14.935600 722.000000 26.870058
14.945800 691.000000 26.286879
14.956000 716.000000 26.758176
14.966300 684.000000 26.153394
14.976500 692.000000 26.305893
14.986700 666.000000 25.806976
14.996900 738.000000 27.166155
15.007100 742.000000 27.239677
15.017300 680.000000 26.076810
15.027600 736.000000 27.129320
15.037800 711.000000 26.664583
15.048000 720.000000 26.832816
15.058200 705.000000 26.551836
15.068400 678.000000 26.038433
15.078700 681.000000 26.095977
15.088900 722.000000 26.870058
15.099100 685.000000 26.172505
15.109300 690.000000 26.267851
15.119500 693.000000 26.324893
15.129700 659.000000 25.670995
15.140000 681.000000 26.095977
15.150200 674.000000 25.961510
15.160400 745.000000 27.294688
15.170600 692.000000 26.305893
15.180800 687.000000 26.210685
15.191000 664.000000 25.768197
15.201300 647.000000 25.436195
15.211500 666.000000 25.806976
15.221700 683.000000 26.134269
15.231900 670.000000 25.884358
15.242100 698.000000 26.419690
15.252400 683.000000 26.134269
15.262600 705.000000 26.551836
15.272800 654.000000 25.573424
15.283000 673.000000 25.942244
15.293200 706.000000 26.570661
15.303400 632.000000 25.139610
15.313700 602.000000 24.535688
15.323900 687.000000 26.210685
15.334100 666.000000 25.806976
15.344300 660.000000 25.690465
15.354500 651.000000 25.514702
15.364700 679.000000 26.057628
15.375000 640.000000 25.298221
15.385200 688.000000 26.229754
15.395400 672.000000 25.922963
15.405600 659.000000 25.670995
15.415800 658.000000 25.651511
15.426100 623.000000 24.959968
15.436300 652.000000 25.534291
15.446500 677.000000 26.019224
15.456700 695.000000 26.362853
15.466900 649.000000 25.475478
15.477100 636.000000 25.219040
15.487400 644.000000 25.377155
15.497600 606.000000 24.617067
15.507800 644.000000 25.377155
15.518000 622.000000 24.939928
15.528200 643.000000 25.357445
15.538400 658.000000 25.651511
15.548700 582.000000 24.124676
15.558900 604.000000 24.576411
15.569100 640.000000 25.298221
15.579300 609.000000 24.677925
15.589500 578.000000 24.041631
15.599800 629.000000 25.079872
15.610000 592.000000 24.331050
15.620200 648.000000 25.455844
15.630400 569.000000 23.853721
15.640600 613.000000 24.758837
15.650800 609.000000 24.677925
15.661100 615.000000 24.799194
15.671300 607.000000 24.637370
15.681500 602.000000 24.535688
15.691700 660.000000 25.690465
15.701900 628.000000 25.059928
15.712100 632.000000 25.139610
15.722400 581.000000 24.103942
15.732600 611.000000 24.718414
15.742800 644.000000 25.377155
15.753000 585.000000 24.186773
15.763200 625.000000 25.000000
15.773500 590.000000 24.289916
15.783700 641.000000 25.317978
15.793900 607.000000 24.637370
15.804100 624.000000 24.979992
15.814300 701.000000 26.476405
15.824500 664.000000 25.768197
15.834800 693.000000 26.324893
15.845000 675.000000 25.980762
15.855200 686.000000 26.191602
15.865400 698.000000 26.419690
15.875600 687.000000 26.210685
15.885800 705.000000 26.551836
15.896100 741.000000 27.221315
15.906300 662.000000 25.729361
15.916500 712.000000 26.683328
15.926700 643.000000 25.357445
15.936900 711.000000 26.664583
15.947200 656.000000 25.612497
15.957400 674.000000 25.961510
15.967600 647.000000 25.436195
15.977800 649.000000 25.475478
15.988000 645.000000 25.396850
15.998200 641.000000 25.317978
16.008500 618.000000 24.859606
16.018700 597.000000 24.433583
16.028900 606.000000 24.617067
16.039100 644.000000 25.377155
16.049300 639.000000 25.278449
16.059500 617.000000 24.839485
16.069800 609.000000 24.677925
16.080000 553.000000 23.515952
16.090200 584.000000 24.166092
16.100400 558.000000 23.622024
16.110600 579.000000 24.062419
16.120900 551.000000 23.473389
16.131100 588.000000 24.248711
16.141300 572.000000 23.916521
16.151500 549.000000 23.430749
16.161700 563.000000 23.727621
16.171900 566.000000 23.790755
16.182200 563.000000 23.727621
16.192400 575.000000 23.979158
16.202600 535.000000 23.130067
16.212800 525.000000 22.912878
16.223000 568.000000 23.832751
16.233200 559.000000 23.643181
16.243500 547.000000 23.388031
16.253700 589.000000 24.269322
16.263900 632.000000 25.139610
16.274100 533.000000 23.086793
16.284300 579.000000 24.062419
16.294600 581.000000 24.103942
16.304800 539.000000 23.216374
16.315000 576.000000 24.000000
16.325200 514.000000 22.671568
16.335400 550.000000 23.452079
16.345600 525.000000 22.912878
16.355900 533.000000 23.086793
16.366100 508.000000 22.538855
16.376300 556.000000 23.579652
16.386500 540.000000 23.237900
16.396700 552.000000 23.494680
16.406900 494.000000 22.226111
16.417200 512.000000 22.627417
16.427400 543.000000 23.302360
16.437600 553.000000 23.515952
16.447800 537.000000 23.173260
16.458000 486.000000 22.045408
16.468300 560.000000 23.664319
16.478500 521.000000 22.825424
16.488700 481.000000 21.931712
16.498900 529.000000 23.000000
16.509100 569.000000 23.853721
16.519300 556.000000 23.579652
16.529600 541.000000 23.259407
16.539800 574.000000 23.958297
16.550000 540.000000 23.237900
16.560200 550.000000 23.452079
16.570400 581.000000 24.103942
16.580600 581.000000 24.103942
16.590900 528.000000 22.978251
16.601100 554.000000 23.537205
16.611300 593.000000 24.351591
16.621500 593.000000 24.351591
16.631700 582.000000 24.124676
16.642000 531.000000 23.043437
16.652200 566.000000 23.790755
16.662400 531.000000 23.043437
16.672600 545.000000 23.345235
16.682800 512.000000 22.627417
16.693000 577.000000 24.020824
16.703300 521.000000 22.825424
16.713500 534.000000 23.108440
16.723700 529.000000 23.000000
16.733900 510.000000 22.583180
16.744100 514.000000 22.671568
16.754300 532.000000 23.065125
16.764600 509.000000 22.561028
16.774800 551.000000 23.473389
16.785000 523.000000 22.869193
16.795200 513.000000 22.649503
16.805400 491.000000 22.158520
16.815700 527.000000 22.956481
16.825900 527.000000 22.956481
16.836100 535.000000 23.130067
16.846300 501.000000 22.383029
16.856500 461.000000 21.470911
16.866700 505.000000 22.472205
16.877000 521.000000 22.825424
16.887200 532.000000 23.065125
16.897400 544.000000 23.323808
16.907600 527.000000 22.956481
16.917800 562.000000 23.706539
16.928000 528.000000 22.978251
16.938300 513.000000 22.649503
16.948500 499.000000 22.338308
16.958700 523.000000 22.869193
16.968900 558.000000 23.622024
16.979100 532.000000 23.065125
16.989400 523.000000 22.869193
16.999600 516.000000 22.715633
17.009800 526.000000 22.934690
17.020000 548.000000 23.409400
17.030200 547.000000 23.388031
17.040400 503.000000 22.427661
17.050700 505.000000 22.472205
17.060900 565.000000 23.769729
17.071100 510.000000 22.583180
17.081300 561.000000 23.685439
17.091500 518.000000 22.759613
17.101700 530.000000 23.021729
17.112000 494.000000 22.226111
17.122200 561.000000 23.685439
17.132400 509.000000 22.561028
17.142600 538.000000 23.194827
17.152800 582.000000 24.124676
17.163100 526.000000 22.934690
17.173300 544.000000 23.323808
17.183500 600.000000 24.494897
17.193700 584.000000 24.166092
17.203900 504.000000 22.449944
17.214100 550.000000 23.452079
17.224400 577.000000 24.020824
17.234600 529.000000 23.000000
17.244800 577.000000 24.020824
17.255000 548.000000 23.409400
17.265200 560.000000 23.664319
17.275400 577.000000 24.020824
17.285700 602.000000 24.535688
17.295900 607.000000 24.637370
17.306100 589.000000 24.269322
17.316300 564.000000 23.748684
17.326500 577.000000 24.020824
17.336800 616.000000 24.819347
17.347000 564.000000 23.748684
17.357200 581.000000 24.103942
17.367400 578.000000 24.041631
17.377600 582.000000 24.124676
17.387800 615.000000 24.799194
17.398100 589.000000 24.269322
17.408300 613.000000 24.758837
17.418500 639.000000 25.278449
17.428700 592.000000 24.331050
17.438900 683.000000 26.134269
17.449100 643.000000 25.357445
17.459400 667.000000 25.826343
17.469600 638.000000 25.258662
17.479800 778.000000 27.892651
17.490000 781.000000 27.946377
17.500200 940.000000 30.659419
17.510500 1100.000000 33.166248
17.520700 1137.000000 33.719431
17.530900 1174.000000 34.263683
17.541100 1081.000000 32.878564
17.551300 949.000000 30.805844
17.561500 962.000000 31.016125
17.571800 927.000000 30.446675
17.582000 870.000000 29.495762
17.592200 784.000000 28.000000
17.602400 767.000000 27.694765
17.612600 788.000000 28.071338
17.622800 693.000000 26.324893
17.633100 757.000000 27.513633
17.643300 678.000000 26.038433
17.653500 701.000000 26.476405
17.663700 690.000000 26.267851
17.673900 673.000000 25.942244
17.684200 700.000000 26.457513
17.694400 683.000000 26.134269
17.704600 625.000000 25.000000
17.714800 610.000000 24.698178
17.725000 598.000000 24.454039
17.735200 588.000000 24.248711
17.745500 552.000000 23.494680
17.755700 572.000000 23.916521
17.765900 551.000000 23.473389
17.776100 565.000000 23.769729
17.786300 569.000000 23.853721
17.796500 546.000000 23.366643
17.806800 551.000000 23.473389
17.817000 522.000000 22.847319
17.827200 541.000000 23.259407
17.837400 582.000000 24.124676
17.847600 511.000000 22.605309
17.857900 542.000000 23.280893
17.868100 524.000000 22.891046
17.878300 525.000000 22.912878
17.888500 561.000000 23.685439
17.898700 553.000000 23.515952
17.908900 503.000000 22.427661
17.919200 522.000000 22.847319
17.929400 542.000000 23.280893
17.939600 507.000000 22.516660
17.949800 509.000000 22.561028
17.960000 530.000000 23.021729
17.970300 491.000000 22.158520
17.980500 520.000000 22.803509
17.990700 515.000000 22.693611
18.000900 504.000000 22.449944
18.011100 506.000000 22.494444
18.021300 556.000000 23.579652
18.031600 490.000000 22.135944
18.041800 484.000000 22.000000
18.052000 500.000000 22.360680
18.062200 508.000000 22.538855
18.072400 479.000000 21.886069
18.082600 500.000000 22.360680
18.092900 476.000000 21.817424
18.103100 513.000000 22.649503
18.113300 534.000000 23.108440
18.123500 482.000000 21.954498
18.133700 528.000000 22.978251
18.144000 480.000000 21.908902
18.154200 503.000000 22.427661
18.164400 496.000000 22.271057
18.174600 464.000000 21.540659
18.184800 476.000000 21.817424
18.195000 510.000000 22.583180
18.205300 469.000000 21.656408
18.215500 498.000000 22.315914
18.225700 491.000000 22.158520
18.235900 499.000000 22.338308
18.246100 487.000000 22.068076
18.256300 459.000000 21.424285
18.266600 493.000000 22.203603
18.276800 499.000000 22.338308
18.287000 482.000000 21.954498
18.297200 518.000000 22.759613
18.307400 526.000000 22.934690
18.317700 479.000000 21.886069
18.327900 477.000000 21.840330
18.338100 470.000000 21.679483
18.348300 507.000000 22.516660
18.358500 467.000000 21.610183
18.368700 456.000000 21.354157
18.379000 483.000000 21.977261
18.389200 486.000000 22.045408
18.399400 475.000000 21.794495
18.409600 454.000000 21.307276
18.419800 469.000000 21.656408
18.430000 464.000000 21.540659
18.440300 481.000000 21.931712
18.450500 451.000000 21.236761
18.460700 479.000000 21.886069
18.470900 458.000000 21.400935
18.481100 484.000000 22.000000
18.491400 457.000000 21.377558
18.501600 466.000000 21.587033
18.511800 469.000000 21.656408
18.522000 465.000000 21.563859
18.532200 471.000000 21.702534
18.542400 450.000000 21.213203
18.552700 429.000000 20.712315
18.562900 461.000000 21.470911
18.573100 469.000000 21.656408
18.583300 445.000000 21.095023
18.593500 440.000000 20.976177
18.603700 435.000000 20.856654
18.614000 457.000000 21.377558
18.624200 430.000000 20.736441
18.634400 408.000000 20.199010
18.644600 458.000000 21.400935
18.654800 443.000000 21.047565
18.665100 425.000000 20.615528
18.675300 452.000000 21.260292
18.685500 424.000000 20.591260
18.695700 437.000000 20.904545
18.705900 436.000000 20.880613
18.716100 439.000000 20.952327
18.726400 471.000000 21.702534
18.736600 443.000000 21.047565
18.746800 444.000000 21.071308
18.757000 428.000000 20.688161
18.767200 447.000000 21.142375
18.777400 408.000000 20.199010
18.787700 458.000000 21.400935
18.797900 398.000000 19.949937
18.808100 417.000000 20.420578
18.818300 450.000000 21.213203
18.828500 455.000000 21.330729
18.838800 408.000000 20.199010
18.849000 415.000000 20.371549
18.859200 423.000000 20.566964
18.869400 424.000000 20.591260
18.879600 433.000000 20.808652
18.889800 417.000000 20.420578
18.900100 431.000000 20.760539
18.910300 399.000000 19.974984
18.920500 403.000000 20.074860
18.930700 428.000000 20.688161
18.940900 412.000000 20.297783
18.951100 425.000000 20.615528
18.961400 435.000000 20.856654
18.971600 428.000000 20.688161
18.981800 398.000000 19.949937
18.992000 465.000000 21.563859
19.002200 418.000000 20.445048
19.012500 418.000000 20.445048
19.022700 423.000000 20.566964
19.032900 444.000000 21.071308
19.043100 415.000000 20.371549
19.053300 400.000000 20.000000
19.063500 381.000000 19.519221
19.073800 437.000000 20.904545
19.084000 426.000000 20.639767
19.094200 412.000000 20.297783
19.104400 436.000000 20.880613
19.114600 416.000000 20.396078
19.124800 417.000000 20.420578
19.135100 420.000000 20.493902
19.145300 417.000000 20.420578
19.155500 435.000000 20.856654
19.165700 410.000000 20.248457
19.175900 467.000000 21.610183
19.186200 427.000000 20.663978
19.196400 415.000000 20.371549
19.206600 425.000000 20.615528
19.216800 428.000000 20.688161
19.227000 458.000000 21.400935
19.237200 452.000000 21.260292
19.247500 449.000000 21.189620
19.257700 454.000000 21.307276
19.267900 468.000000 21.633308
19.278100 432.000000 20.784610
19.288300 440.000000 20.976177
19.298500 469.000000 21.656408
19.308800 459.000000 21.424285
19.319000 420.000000 20.493902
19.329200 450.000000 21.213203
19.339400 447.000000 21.142375
19.349600 460.000000 21.447611
19.359900 448.000000 21.166010
19.370100 485.000000 22.022716
19.380300 436.000000 20.880613
19.390500 437.000000 20.904545
19.400700 471.000000 21.702534
19.410900 440.000000 20.976177
19.421200 429.000000 20.712315
19.431400 426.000000 20.639767
19.441600 467.000000 21.610183
19.451800 445.000000 21.095023
19.462000 420.000000 20.493902
19.472200 434.000000 20.832667
19.482500 484.000000 22.000000
19.492700 436.000000 20.880613
19.502900 467.000000 21.610183
19.513100 471.000000 21.702534
19.523300 460.000000 21.447611
19.533600 472.000000 21.725561
19.543800 425.000000 20.615528
19.554000 467.000000 21.610183
19.564200 449.000000 21.189620
19.574400 463.000000 21.517435
19.584600 460.000000 21.447611
19.594900 452.000000 21.260292
19.605100 444.000000 21.071308
19.615300 474.000000 21.771541
19.625500 472.000000 21.725561
19.635700 446.000000 21.118712
19.645900 474.000000 21.771541
19.656200 428.000000 20.688161
19.666400 459.000000 21.424285
19.676600 438.000000 20.928450
19.686800 467.000000 21.610183
19.697000 478.000000 21.863211
19.707300 449.000000 21.189620
19.717500 451.000000 21.236761
19.727700 495.000000 22.248595
19.737900 505.000000 22.472205
19.748100 437.000000 20.904545
19.758300 461.000000 21.470911
19.768600 513.000000 22.649503
19.778800 461.000000 21.470911
19.789000 469.000000 21.656408
19.799200 479.000000 21.886069
19.809400 479.000000 21.886069
19.819600 444.000000 21.071308
19.829900 457.000000 21.377558
19.840100 453.000000 21.283797
19.850300 484.000000 22.000000
19.860500 415.000000 20.371549
19.870700 483.000000 21.977261
19.881000 447.000000 21.142375
19.891200 452.000000 21.260292
19.901400 425.000000 20.615528
19.911600 477.000000 21.840330
19.921800 432.000000 20.784610
19.932000 430.000000 20.736441
19.942300 441.000000 21.000000
19.952500 457.000000 21.377558
19.962700 436.000000 20.880613
19.972900 466.000000 21.587033
19.983100 460.000000 21.447611
19.993300 453.000000 21.283797
20.003600 484.000000 22.000000
20.013800 484.000000 22.000000
20.024000 449.000000 21.189620
20.034200 492.000000 22.181073
20.044400 536.000000 23.151674
20.054700 633.000000 25.159491
20.064900 752.000000 27.422618
20.075100 984.000000 31.368774
20.085300 1254.000000 35.411862
20.095500 1360.000000 36.878178
20.105700 1316.000000 36.276714
20.116000 1070.000000 32.710854
20.126200 966.000000 31.080541
20.136400 959.000000 30.967725
20.146600 988.000000 31.432467
20.156800 891.000000 29.849623
20.167000 722.000000 26.870058
20.177300 626.000000 25.019992
20.187500 550.000000 23.452079
20.197700 513.000000 22.649503
20.207900 503.000000 22.427661
20.218100 450.000000 21.213203
20.228400 475.000000 21.794495
20.238600 482.000000 21.954498
20.248800 499.000000 22.338308
20.259000 485.000000 22.022716
20.269200 448.000000 21.166010
20.279400 482.000000 21.954498
20.289700 426.000000 20.639767
20.299900 439.000000 20.952327
20.310100 426.000000 20.639767
20.320300 483.000000 21.977261
20.330500 431.000000 20.760539
20.340700 430.000000 20.736441
20.351000 469.000000 21.656408
20.361200 436.000000 20.880613
20.371400 442.000000 21.023796
20.381600 449.000000 21.189620
20.391800 471.000000 21.702534
20.402100 457.000000 21.377558
20.412300 482.000000 21.954498
20.422500 450.000000 21.213203
20.432700 438.000000 20.928450
20.442900 456.000000 21.354157
20.453100 452.000000 21.260292
20.463400 457.000000 21.377558
20.473600 474.000000 21.771541
20.483800 474.000000 21.771541
20.494000 437.000000 20.904545
20.504200 428.000000 20.688161
20.514400 441.000000 21.000000
20.524700 456.000000 21.354157
20.534900 450.000000 21.213203
20.545100 403.000000 20.074860
20.555300 463.000000 21.517435
20.565500 446.000000 21.118712
20.575800 433.000000 20.808652
20.586000 423.000000 20.566964
20.596200 486.000000 22.045408
20.606400 434.000000 20.832667
20.616600 415.000000 20.371549
20.626800 389.000000 19.723083
20.637100 455.000000 21.330729
20.647300 441.000000 21.000000
20.657500 401.000000 20.024984
20.667700 418.000000 20.445048
20.677900 442.000000 21.023796
20.688100 426.000000 20.639767
20.698400 441.000000 21.000000
20.708600 451.000000 21.236761
20.718800 423.000000 20.566964
20.729000 431.000000 20.760539
20.739200 449.000000 21.189620
20.749500 419.000000 20.469489
20.759700 463.000000 21.517435
20.769900 449.000000 21.189620
20.780100 395.000000 19.874607
20.790300 411.000000 20.273135
20.800500 409.000000 20.223748
20.810800 410.000000 20.248457
20.821000 396.000000 19.899749
20.831200 414.000000 20.346990
20.841400 386.000000 19.646883
20.851600 439.000000 20.952327
20.861800 390.000000 19.748418
20.872100 413.000000 20.322401
20.882300 371.000000 19.261360
20.892500 423.000000 20.566964
20.902700 404.000000 20.099751
20.912900 408.000000 20.199010
20.923200 451.000000 21.236761
20.933400 425.000000 20.615528
20.943600 441.000000 21.000000
20.953800 434.000000 20.832667
20.964000 415.000000 20.371549
20.974200 425.000000 20.615528
20.984500 382.000000 19.544820
20.994700 392.000000 19.798990
21.004900 417.000000 20.420578
21.015100 407.000000 20.174241
21.025300 442.000000 21.023796
21.035500 368.000000 19.183326
21.045800 436.000000 20.880613
21.056000 397.000000 19.924859
21.066200 403.000000 20.074860
21.076400 406.000000 20.149442
21.086600 410.000000 20.248457
21.096900 420.000000 20.493902
21.107100 411.000000 20.273135
21.117300 431.000000 20.760539
21.127500 423.000000 20.566964
21.137700 459.000000 21.424285
21.147900 548.000000 23.409400
21.158200 588.000000 24.248711
21.168400 601.000000 24.515301
21.178600 609.000000 24.677925
21.188800 524.000000 22.891046
21.199000 511.000000 22.605309
21.209200 484.000000 22.000000
21.219500 529.000000 23.000000
21.229700 512.000000 22.627417
21.239900 428.000000 20.688161
21.250100 406.000000 20.149442
21.260300 413.000000 20.322401
21.270600 383.000000 19.570386
21.280800 411.000000 20.273135
21.291000 371.000000 19.261360
21.301200 406.000000 20.149442
21.311400 373.000000 19.313208
21.321600 401.000000 20.024984
21.331900 350.000000 18.708287
21.342100 403.000000 20.074860
21.352300 360.000000 18.973666
21.362500 361.000000 19.000000
21.372700 357.000000 18.894444
21.382900 356.000000 18.867962
21.393200 387.000000 19.672316
21.403400 381.000000 19.519221
21.413600 389.000000 19.723083
21.423800 393.000000 19.824228
21.434000 343.000000 18.520259
21.444300 402.000000 20.049938
21.454500 384.000000 19.595918
21.464700 368.000000 19.183326
21.474900 411.000000 20.273135
21.485100 339.000000 18.411953
21.495300 353.000000 18.788294
21.505600 356.000000 18.867962
21.515800 328.000000 18.110770
21.526000 357.000000 18.894444
21.536200 368.000000 19.183326
21.546400 337.000000 18.357560
21.556600 364.000000 19.078784
21.566900 371.000000 19.261360
21.577100 335.000000 18.303005
21.587300 369.000000 19.209373
21.597500 344.000000 18.547237
21.607700 373.000000 19.313208
21.618000 390.000000 19.748418
21.628200 326.000000 18.055470
21.638400 368.000000 19.183326
21.648600 364.000000 19.078784
21.658800 327.000000 18.083141
21.669000 367.000000 19.157244
21.679300 401.000000 20.024984
21.689500 364.000000 19.078784
21.699700 324.000000 18.000000
21.709900 343.000000 18.520259
21.720100 330.000000 18.165902
21.730300 365.000000 19.104973
21.740600 352.000000 18.761663
21.750800 363.000000 19.052559
21.761000 365.000000 19.104973
21.771200 370.000000 19.235384
21.781400 341.000000 18.466185
21.791700 314.000000 17.720045
21.801900 322.000000 17.944358
21.812100 338.000000 18.384776
21.822300 360.000000 18.973666
21.832500 356.000000 18.867962
21.842700 366.000000 19.131126
21.853000 357.000000 18.894444
21.863200 348.000000 18.654758
21.873400 337.000000 18.357560
21.883600 382.000000 19.544820
21.893800 354.000000 18.814888
21.904000 335.000000 18.303005
21.914300 351.000000 18.734994
21.924500 339.000000 18.411953
21.934700 351.000000 18.734994
21.944900 321.000000 17.916473
21.955100 368.000000 19.183326
21.965400 336.000000 18.330303
21.975600 324.000000 18.000000
21.985800 354.000000 18.814888
21.996000 337.000000 18.357560
22.006200 346.000000 18.601075
22.016400 355.000000 18.841444
22.026700 354.000000 18.814888
22.036900 383.000000 19.570386
22.047100 374.000000 19.339080
22.057300 357.000000 18.894444
22.067500 330.000000 18.165902
22.077700 374.000000 19.339080
22.088000 349.000000 18.681542
22.098200 348.000000 18.654758
22.108400 355.000000 18.841444
22.118600 329.000000 18.138357
22.128800 317.000000 17.804494
22.139100 322.000000 17.944358
22.149300 330.000000 18.165902
22.159500 313.000000 17.691806
22.169700 345.000000 18.574176
22.179900 355.000000 18.841444
22.190100 329.000000 18.138357
22.200400 339.000000 18.411953
22.210600 320.000000 17.888544
22.220800 351.000000 18.734994
22.231000 317.000000 17.804494
22.241200 332.000000 18.220867
22.251400 351.000000 18.734994
22.261700 338.000000 18.384776
22.271900 316.000000 17.776389
22.282100 331.000000 18.193405
22.292300 328.000000 18.110770
22.302500 327.000000 18.083141
22.312800 312.000000 17.663522
22.323000 358.000000 18.920888
22.333200 313.000000 17.691806
22.343400 302.000000 17.378147
22.353600 327.000000 18.083141
22.363800 307.000000 17.521415
22.374100 327.000000 18.083141
22.384300 343.000000 18.520259
22.394500 326.000000 18.055470
22.404700 321.000000 17.916473
22.414900 316.000000 17.776389
22.425100 358.000000 18.920888
22.435400 311.000000 17.635192
22.445600 291.000000 17.058722
22.455800 351.000000 18.734994
22.466000 355.000000 18.841444
22.476200 310.000000 17.606817
22.486500 315.000000 17.748239
22.496700 348.000000 18.654758
22.506900 376.000000 19.390719
22.517100 350.000000 18.708287
22.527300 351.000000 18.734994
22.537500 340.000000 18.439089
22.547800 324.000000 18.000000
22.558000 333.000000 18.248288
22.568200 350.000000 18.708287
22.578400 347.000000 18.627936
22.588600 336.000000 18.330303
22.598800 321.000000 17.916473
22.609100 362.000000 19.026298
22.619300 356.000000 18.867962
22.629500 366.000000 19.131126
22.639700 348.000000 18.654758
22.649900 348.000000 18.654758
22.660200 363.000000 19.052559
22.670400 385.000000 19.621417
22.680600 359.000000 18.947295
22.690800 363.000000 19.052559
22.701000 360.000000 18.973666
22.711200 361.000000 19.000000
22.721500 366.000000 19.131126
22.731700 353.000000 18.788294
22.741900 429.000000 20.712315
22.752100 370.000000 19.235384
22.762300 410.000000 20.248457
22.772500 389.000000 19.723083
22.782800 349.000000 18.681542
22.793000 397.000000 19.924859
22.803200 410.000000 20.248457
22.813400 377.000000 19.416488
22.823600 363.000000 19.052559
22.833900 342.000000 18.493242
22.844100 406.000000 20.149442
22.854300 381.000000 19.519221
22.864500 318.000000 17.832555
22.874700 380.000000 19.493589
22.884900 387.000000 19.672316
22.895200 353.000000 18.788294
22.905400 377.000000 19.416488
22.915600 358.000000 18.920888
22.925800 363.000000 19.052559
22.936000 343.000000 18.520259
22.946200 360.000000 18.973666
22.956500 331.000000 18.193405
22.966700 314.000000 17.720045
22.976900 325.000000 18.027756
22.987100 342.000000 18.493242
22.997300 357.000000 18.894444
23.007600 336.000000 18.330303
23.017800 342.000000 18.493242
23.028000 355.000000 18.841444
23.038200 350.000000 18.708287
23.048400 361.000000 19.000000
23.058600 335.000000 18.303005
23.068900 335.000000 18.303005
23.079100 351.000000 18.734994
23.089300 350.000000 18.708287
23.099500 331.000000 18.193405
23.109700 317.000000 17.804494
23.119900 323.000000 17.972201
23.130200 349.000000 18.681542
23.140400 310.000000 17.606817
23.150600 361.000000 19.000000
23.160800 330.000000 18.165902
23.171000 316.000000 17.776389
23.181300 341.000000 18.466185
23.191500 322.000000 17.944358
23.201700 315.000000 17.748239
23.211900 337.000000 18.357560
23.222100 322.000000 17.944358
23.232300 312.000000 17.663522
23.242600 291.000000 17.058722
23.252800 306.000000 17.492856
23.263000 306.000000 17.492856
23.273200 298.000000 17.262677
23.283400 316.000000 17.776389
23.293700 333.000000 18.248288
23.303900 334.000000 18.275667
23.314100 321.000000 17.916473
23.324300 331.000000 18.193405
23.334500 300.000000 17.320508
23.344700 343.000000 18.520259
23.355000 329.000000 18.138357
23.365200 313.000000 17.691806
23.375400 316.000000 17.776389
23.385600 338.000000 18.384776
23.395800 309.000000 17.578396
23.406000 287.000000 16.941074
23.416300 315.000000 17.748239
23.426500 309.000000 17.578396
23.436700 307.000000 17.521415
23.446900 316.000000 17.776389
23.457100 356.000000 18.867962
23.467400 312.000000 17.663522
23.477600 302.000000 17.378147
23.487800 300.000000 17.320508
23.498000 302.000000 17.378147
23.508200 277.000000 16.643317
23.518400 296.000000 17.204651
23.528700 276.000000 16.613248
23.538900 318.000000 17.832555
23.549100 288.000000 16.970563
23.559300 315.000000 17.748239
23.569500 287.000000 16.941074
23.579700 323.000000 17.972201
23.590000 284.000000 16.852300
23.600200 283.000000 16.822604
23.610400 300.000000 17.320508
23.620600 288.000000 16.970563
23.630800 296.000000 17.204651
23.641100 303.000000 17.406895
23.651300 289.000000 17.000000
23.661500 308.000000 17.549929
23.671700 317.000000 17.804494
23.681900 301.000000 17.349352
23.692100 315.000000 17.748239
23.702400 274.000000 16.552945
23.712600 301.000000 17.349352
23.722800 279.000000 16.703293
23.733000 298.000000 17.262677
23.743200 271.000000 16.462078
23.753400 286.000000 16.911535
23.763700 283.000000 16.822604
23.773900 262.000000 16.186414
23.784100 323.000000 17.972201
23.794300 302.000000 17.378147
23.804500 336.000000 18.330303
23.814800 349.000000 18.681542
23.825000 298.000000 17.262677
23.835200 310.000000 17.606817
23.845400 318.000000 17.832555
23.855600 281.000000 16.763055
23.865800 316.000000 17.776389
23.876100 324.000000 18.000000
23.886300 323.000000 17.972201
23.896500 321.000000 17.916473
23.906700 300.000000 17.320508
23.916900 268.000000 16.370706
23.927100 276.000000 16.613248
23.937400 285.000000 16.881943
23.947600 318.000000 17.832555
23.957800 296.000000 17.204651
23.968000 299.000000 17.291616
23.978200 299.000000 17.291616
23.988500 290.000000 17.029386
23.998700 270.000000 16.431677
24.008900 305.000000 17.464249
24.019100 252.000000 15.874508
24.029300 303.000000 17.406895
24.039500 294.000000 17.146428
24.049800 274.000000 16.552945
24.060000 322.000000 17.944358
24.070200 297.000000 17.233688
24.080400 280.000000 16.733201
24.090600 278.000000 16.673332
24.100800 298.000000 17.262677
24.111100 282.000000 16.792856
24.121300 293.000000 17.117243
24.131500 271.000000 16.462078
24.141700 296.000000 17.204651
24.151900 306.000000 17.492856
24.162200 322.000000 17.944358
24.172400 273.000000 16.522712
24.182600 269.000000 16.401219
24.192800 293.000000 17.117243
24.203000 260.000000 16.124515
24.213200 284.000000 16.852300
24.223500 280.000000 16.733201
24.233700 302.000000 17.378147
24.243900 313.000000 17.691806
24.254100 271.000000 16.462078
24.264300 299.000000 17.291616
24.274500 291.000000 17.058722
24.284800 293.000000 17.117243
24.295000 293.000000 17.117243
24.305200 289.000000 17.000000
24.315400 264.000000 16.248077
24.325600 268.000000 16.370706
24.335900 332.000000 18.220867
24.346100 293.000000 17.117243
24.356300 304.000000 17.435596
24.366500 293.000000 17.117243
24.376700 271.000000 16.462078
24.386900 246.000000 15.684387
24.397200 287.000000 16.941074
24.407400 260.000000 16.124515
24.417600 260.000000 16.124515
24.427800 268.000000 16.370706
24.438000 286.000000 16.911535
24.448200 278.000000 16.673332
24.458500 275.000000 16.583124
24.468700 287.000000 16.941074
24.478900 250.000000 15.811388
24.489100 261.000000 16.155494
24.499300 240.000000 15.491933
24.509600 282.000000 16.792856
24.519800 289.000000 17.000000
24.530000 290.000000 17.029386
24.540200 259.000000 16.093477
24.550400 291.000000 17.058722
24.560600 270.000000 16.431677
24.570900 273.000000 16.522712
24.581100 246.000000 15.684387
24.591300 271.000000 16.462078
24.601500 269.000000 16.401219
24.611700 249.000000 15.779734
24.621900 267.000000 16.340135
24.632200 269.000000 16.401219
24.642400 246.000000 15.684387
24.652600 261.000000 16.155494
24.662800 242.000000 15.556349
24.673000 312.000000 17.663522
24.683300 282.000000 16.792856
24.693500 241.000000 15.524175
24.703700 254.000000 15.937377
24.713900 261.000000 16.155494
24.724100 267.000000 16.340135
24.734300 258.000000 16.062378
24.744600 240.000000 15.491933
24.754800 251.000000 15.842980
24.765000 267.000000 16.340135
24.775200 274.000000 16.552945
24.785400 264.000000 16.248077
24.795600 243.000000 15.588457
24.805900 261.000000 16.155494
24.816100 258.000000 16.062378
24.826300 285.000000 16.881943
24.836500 288.000000 16.970563
24.846700 265.000000 16.278821
24.857000 270.000000 16.431677
24.867200 253.000000 15.905974
24.877400 281.000000 16.763055
24.887600 264.000000 16.248077
24.897800 267.000000 16.340135
24.908000 247.000000 15.716234
24.918300 274.000000 16.552945
24.928500 253.000000 15.905974
24.938700 244.000000 15.620499
24.948900 276.000000 16.613248
24.959100 250.000000 15.811388
24.969300 260.000000 16.124515
24.979600 265.000000 16.278821
24.989800 270.000000 16.431677
25.000000 263.000000 16.217275
25.010200 271.000000 16.462078
25.020400 321.000000 17.916473
25.030700 270.000000 16.431677
25.040900 253.000000 15.905974
25.051100 312.000000 17.663522
25.061300 283.000000 16.822604
25.071500 311.000000 17.635192
25.081700 325.000000 18.027756
25.092000 351.000000 18.734994
25.102200 379.000000 19.467922
25.112400 374.000000 19.339080
25.122600 369.000000 19.209373
25.132800 367.000000 19.157244
25.143000 335.000000 18.303005
25.153300 392.000000 19.798990
25.163500 400.000000 20.000000
25.173700 416.000000 20.396078
25.183900 456.000000 21.354157
25.194100 546.000000 23.366643
25.204400 599.000000 24.474477
25.214600 688.000000 26.229754
25.224800 672.000000 25.922963
25.235000 598.000000 24.454039
25.245200 531.000000 23.043437
25.255400 509.000000 22.561028
25.265700 509.000000 22.561028
25.275900 527.000000 22.956481
25.286100 544.000000 23.323808
25.296300 531.000000 23.043437
25.306500 517.000000 22.737634
25.316700 481.000000 21.931712
25.327000 440.000000 20.976177
25.337200 441.000000 21.000000
25.347400 442.000000 21.023796
25.357600 448.000000 21.166010
25.367800 469.000000 21.656408
25.378100 507.000000 22.516660
25.388300 481.000000 21.931712
25.398500 491.000000 22.158520
25.408700 482.000000 21.954498
25.418900 442.000000 21.023796
25.429100 376.000000 19.390719
25.439400 447.000000 21.142375
25.449600 426.000000 20.639767
25.459800 445.000000 21.095023
25.470000 373.000000 19.313208
25.480200 346.000000 18.601075
25.490400 365.000000 19.104973
25.500700 322.000000 17.944358
25.510900 327.000000 18.083141
25.521100 346.000000 18.601075
25.531300 354.000000 18.814888
25.541500 342.000000 18.493242
25.551800 309.000000 17.578396
25.562000 321.000000 17.916473
25.572200 284.000000 16.852300
25.582400 300.000000 17.320508
25.592600 319.000000 17.860571
25.602800 263.000000 16.217275
25.613100 278.000000 16.673332
25.623300 252.000000 15.874508
25.633500 267.000000 16.340135
25.643700 280.000000 16.733201
25.653900 265.000000 16.278821
25.664100 278.000000 16.673332
25.674400 283.000000 16.822604
25.684600 285.000000 16.881943
25.694800 252.000000 15.874508
25.705000 262.000000 16.186414
25.715200 252.000000 15.874508
25.725500 265.000000 16.278821
25.735700 297.000000 17.233688
25.745900 266.000000 16.309506
25.756100 244.000000 15.620499
25.766300 239.000000 15.459625
25.776500 237.000000 15.394804
25.786800 254.000000 15.937377
25.797000 284.000000 16.852300
25.807200 258.000000 16.062378
25.817400 269.000000 16.401219
25.827600 248.000000 15.748016
25.837800 258.000000 16.062378
25.848100 265.000000 16.278821
25.858300 264.000000 16.248077
25.868500 275.000000 16.583124
25.878700 263.000000 16.217275
25.888900 269.000000 16.401219
25.899200 269.000000 16.401219
25.909400 270.000000 16.431677
25.919600 257.000000 16.031220
25.929800 233.000000 15.264338
25.940000 254.000000 15.937377
25.950200 269.000000 16.401219
25.960500 215.000000 14.662878
25.970700 209.000000 14.456832
25.980900 278.000000 16.673332
25.991100 263.000000 16.217275
26.001300 237.000000 15.394804
26.011500 250.000000 15.811388
26.021800 248.000000 15.748016
26.032000 255.000000 15.968719
26.042200 261.000000 16.155494
26.052400 246.000000 15.684387
26.062600 263.000000 16.217275
26.072900 229.000000 15.132746
26.083100 246.000000 15.684387
26.093300 230.000000 15.165751
26.103500 230.000000 15.165751
26.113700 223.000000 14.933185
26.123900 247.000000 15.716234
26.134200 245.000000 15.652476
26.144400 247.000000 15.716234
26.154600 289.000000 17.000000
26.164800 235.000000 15.329710
26.175000 264.000000 16.248077
26.185200 235.000000 15.329710
26.195500 210.000000 14.491377
26.205700 222.000000 14.899664
26.215900 243.000000 15.588457
26.226100 247.000000 15.716234
26.236300 209.000000 14.456832
26.246600 211.000000 14.525839
26.256800 255.000000 15.968719
26.267000 227.000000 15.066519
26.277200 265.000000 16.278821
26.287400 220.000000 14.832397
26.297600 233.000000 15.264338
26.307900 254.000000 15.937377
26.318100 229.000000 15.132746
26.328300 236.000000 15.362291
26.338500 221.000000 14.866069
26.348700 206.000000 14.352700
26.358900 248.000000 15.748016
26.369200 229.000000 15.132746
26.379400 220.000000 14.832397
26.389600 217.000000 14.730920
26.399800 247.000000 15.716234
26.410000 225.000000 15.000000
26.420300 254.000000 15.937377
26.430500 252.000000 15.874508
26.440700 240.000000 15.491933
26.450900 235.000000 15.329710
26.461100 212.000000 14.560220
26.471300 267.000000 16.340135
26.481600 256.000000 16.000000
26.491800 249.000000 15.779734
26.502000 215.000000 14.662878
26.512200 243.000000 15.588457
26.522400 234.000000 15.297059
26.532600 284.000000 16.852300
26.542900 259.000000 16.093477
26.553100 242.000000 15.556349
26.563300 304.000000 17.435596
26.573500 284.000000 16.852300
26.583700 258.000000 16.062378
26.594000 269.000000 16.401219
26.604200 270.000000 16.431677
26.614400 282.000000 16.792856
26.624600 277.000000 16.643317
26.634800 283.000000 16.822604
26.645000 279.000000 16.703293
26.655300 295.000000 17.175564
26.665500 288.000000 16.970563
26.675700 271.000000 16.462078
26.685900 249.000000 15.779734
26.696100 267.000000 16.340135
26.706300 251.000000 15.842980
26.716600 260.000000 16.124515
26.726800 252.000000 15.874508
26.737000 214.000000 14.628739
26.747200 230.000000 15.165751
26.757400 230.000000 15.165751
26.767700 215.000000 14.662878
26.777900 216.000000 14.696938
26.788100 233.000000 15.264338
26.798300 231.000000 15.198684
26.808500 212.000000 14.560220
26.818700 212.000000 14.560220
26.829000 225.000000 15.000000
26.839200 204.000000 14.282857
26.849400 192.000000 13.856406
26.859600 237.000000 15.394804
26.869800 236.000000 15.362291
26.880000 225.000000 15.000000
26.890300 239.000000 15.459625
26.900500 245.000000 15.652476
26.910700 238.000000 15.427249
26.920900 223.000000 14.933185
26.931100 211.000000 14.525839
26.941400 228.000000 15.099669
26.951600 239.000000 15.459625
26.961800 186.000000 13.638182
26.972000 224.000000 14.966630
26.982200 213.000000 14.594520
26.992400 201.000000 14.177447
27.002700 225.000000 15.000000
27.012900 219.000000 14.798649
27.023100 230.000000 15.165751
27.033300 229.000000 15.132746
27.043500 222.000000 14.899664
27.053700 195.000000 13.964240
27.064000 232.000000 15.231546
27.074200 232.000000 15.231546
27.084400 239.000000 15.459625
27.094600 191.000000 13.820275
27.104800 237.000000 15.394804
27.115100 199.000000 14.106736
27.125300 226.000000 15.033296
27.135500 234.000000 15.297059
27.145700 275.000000 16.583124
27.155900 265.000000 16.278821
27.166100 315.000000 17.748239
27.176400 263.000000 16.217275
27.186600 258.000000 16.062378
27.196800 233.000000 15.264338
27.207000 233.000000 15.264338
27.217200 238.000000 15.427249
27.227400 253.000000 15.905974
27.237700 258.000000 16.062378
27.247900 213.000000 14.594520
27.258100 219.000000 14.798649
27.268300 198.000000 14.071247
27.278500 218.000000 14.764823
27.288800 205.000000 14.317821
27.299000 204.000000 14.282857
27.309200 197.000000 14.035669
27.319400 194.000000 13.928388
27.329600 187.000000 13.674794
27.339800 189.000000 13.747727
27.350100 219.000000 14.798649
27.360300 195.000000 13.964240
27.370500 203.000000 14.247807
27.380700 204.000000 14.282857
27.390900 195.000000 13.964240
27.401100 178.000000 13.341664
27.411400 156.000000 12.489996
27.421600 197.000000 14.035669
27.431800 190.000000 13.784049
27.442000 192.000000 13.856406
27.452200 200.000000 14.142136
27.462500 201.000000 14.177447
27.472700 186.000000 13.638182
27.482900 211.000000 14.525839
27.493100 192.000000 13.856406
27.503300 202.000000 14.212670
27.513500 198.000000 14.071247
27.523800 180.000000 13.416408
27.534000 185.000000 13.601471
27.544200 194.000000 13.928388
27.554400 198.000000 14.071247
27.564600 186.000000 13.638182
27.574800 188.000000 13.711309
27.585100 177.000000 13.304135
27.595300 186.000000 13.638182
27.605500 172.000000 13.114877
27.615700 188.000000 13.711309
27.625900 177.000000 13.304135
27.636200 193.000000 13.892444
27.646400 195.000000 13.964240
27.656600 200.000000 14.142136
27.666800 173.000000 13.152946
27.677000 178.000000 13.341664
27.687200 216.000000 14.696938
27.697500 191.000000 13.820275
27.707700 186.000000 13.638182
27.717900 183.000000 13.527749
27.728100 172.000000 13.114877
27.738300 193.000000 13.892444
27.748500 184.000000 13.564660
27.758800 174.000000 13.190906
27.769000 176.000000 13.266499
27.779200 172.000000 13.114877
27.789400 184.000000 13.564660
27.799600 161.000000 12.688578
27.809900 174.000000 13.190906
27.820100 189.000000 13.747727
27.830300 207.000000 14.387495
27.840500 184.000000 13.564660
27.850700 204.000000 14.282857
27.860900 174.000000 13.190906
27.871200 195.000000 13.964240
27.881400 193.000000 13.892444
27.891600 183.000000 13.527749
27.901800 214.000000 14.628739
27.912000 179.000000 13.379088
27.922200 194.000000 13.928388
27.932500 198.000000 14.071247
27.942700 189.000000 13.747727
27.952900 193.000000 13.892444
27.963100 195.000000 13.964240
27.973300 199.000000 14.106736
27.983600 161.000000 12.688578
27.993800 160.000000 12.649111
28.004000 179.000000 13.379088
28.014200 173.000000 13.152946
28.024400 189.000000 13.747727
28.034600 197.000000 14.035669
28.044900 184.000000 13.564660
28.055100 198.000000 14.071247
28.065300 167.000000 12.922848
28.075500 179.000000 13.379088
28.085700 168.000000 12.961481
28.095900 183.000000 13.527749
28.106200 196.000000 14.000000
28.116400 190.000000 13.784049
28.126600 180.000000 13.416408
28.136800 189.000000 13.747727
28.147000 181.000000 13.453624
28.157300 174.000000 13.190906
28.167500 205.000000 14.317821
28.177700 202.000000 14.212670
28.187900 196.000000 14.000000
28.198100 185.000000 13.601471
28.208300 185.000000 13.601471
28.218600 190.000000 13.784049
28.228800 183.000000 13.527749
28.239000 207.000000 14.387495
28.249200 192.000000 13.856406
28.259400 176.000000 13.266499
28.269600 192.000000 13.856406
28.279900 189.000000 13.747727
28.290100 164.000000 12.806248
28.300300 188.000000 13.711309
28.310500 169.000000 13.000000
28.320700 192.000000 13.856406
28.331000 206.000000 14.352700
28.341200 204.000000 14.282857
28.351400 185.000000 13.601471
28.361600 180.000000 13.416408
28.371800 193.000000 13.892444
28.382000 191.000000 13.820275
28.392300 177.000000 13.304135
28.402500 196.000000 14.000000
28.412700 189.000000 13.747727
28.422900 168.000000 12.961481
28.433100 207.000000 14.387495
28.443300 192.000000 13.856406
28.453600 178.000000 13.341664
28.463800 191.000000 13.820275
28.474000 156.000000 12.489996
28.484200 215.000000 14.662878
28.494400 169.000000 13.000000
28.504700 167.000000 12.922848
28.514900 157.000000 12.529964
28.525100 164.000000 12.806248
28.535300 166.000000 12.884099
28.545500 166.000000 12.884099
28.555700 170.000000 13.038405
28.566000 185.000000 13.601471
28.576200 162.000000 12.727922
28.586400 174.000000 13.190906
28.596600 184.000000 13.564660
28.606800 177.000000 13.304135
28.617100 158.000000 12.569805
28.627300 161.000000 12.688578
28.637500 161.000000 12.688578
28.647700 144.000000 12.000000
28.657900 161.000000 12.688578
28.668100 173.000000 13.152946
28.678400 155.000000 12.449900
28.688600 151.000000 12.288206
28.698800 173.000000 13.152946
28.709000 175.000000 13.228757
28.719200 162.000000 12.727922
28.729400 163.000000 12.767145
28.739700 180.000000 13.416408
28.749900 150.000000 12.247449
28.760100 164.000000 12.806248
28.770300 157.000000 12.529964
28.780500 168.000000 12.961481
28.790800 165.000000 12.845233
28.801000 146.000000 12.083046
28.811200 154.000000 12.409674
28.821400 197.000000 14.035669
28.831600 153.000000 12.369317
28.841800 151.000000 12.288206
28.852100 149.000000 12.206556
28.862300 140.000000 11.832160
28.872500 164.000000 12.806248
28.882700 171.000000 13.076697
28.892900 163.000000 12.767145
28.903100 167.000000 12.922848
28.913400 160.000000 12.649111
28.923600 168.000000 12.961481
28.933800 155.000000 12.449900
28.944000 159.000000 12.609520
28.954200 148.000000 12.165525
28.964500 160.000000 12.649111
28.974700 166.000000 12.884099
28.984900 142.000000 11.916375
28.995100 155.000000 12.449900
29.005300 145.000000 12.041595
29.015500 171.000000 13.076697
29.025800 158.000000 12.569805
29.036000 148.000000 12.165525
29.046200 174.000000 13.190906
29.056400 162.000000 12.727922
29.066600 156.000000 12.489996
29.076800 175.000000 13.228757
29.087100 127.000000 11.269428
29.097300 163.000000 12.767145
29.107500 145.000000 12.041595
29.117700 152.000000 12.328828
29.127900 162.000000 12.727922
29.138200 154.000000 12.409674
29.148400 151.000000 12.288206
29.158600 148.000000 12.165525
29.168800 155.000000 12.449900
29.179000 138.000000 11.747340
29.189200 159.000000 12.609520
29.199500 144.000000 12.000000
29.209700 152.000000 12.328828
29.219900 145.000000 12.041595
29.230100 154.000000 12.409674
29.240300 151.000000 12.288206
29.250500 153.000000 12.369317
29.260800 129.000000 11.357817
29.271000 152.000000 12.328828
29.281200 143.000000 11.958261
29.291400 148.000000 12.165525
29.301600 161.000000 12.688578
29.311900 157.000000 12.529964
29.322100 162.000000 12.727922
29.332300 134.000000 11.575837
29.342500 143.000000 11.958261
29.352700 158.000000 12.569805
29.362900 173.000000 13.152946
29.373200 161.000000 12.688578
29.383400 143.000000 11.958261
29.393600 149.000000 12.206556
29.403800 158.000000 12.569805
29.414000 144.000000 12.000000
29.424200 111.000000 10.535654
29.434500 166.000000 12.884099
29.444700 134.000000 11.575837
29.454900 163.000000 12.767145
29.465100 140.000000 11.832160
29.475300 149.000000 12.206556
29.485600 154.000000 12.409674
29.495800 156.000000 12.489996
29.506000 172.000000 13.114877
29.516200 171.000000 13.076697
29.526400 163.000000 12.767145
29.536600 169.000000 13.000000
29.546900 137.000000 11.704700
29.557100 152.000000 12.328828
29.567300 154.000000 12.409674
29.577500 154.000000 12.409674
29.587700 130.000000 11.401754
29.597900 127.000000 11.269428
29.608200 140.000000 11.832160
29.618400 147.000000 12.124356
29.628600 133.000000 11.532563
29.638800 172.000000 13.114877
29.649000 147.000000 12.124356
29.659300 166.000000 12.884099
29.669500 150.000000 12.247449
29.679700 163.000000 12.767145
29.689900 163.000000 12.767145
29.700100 144.000000 12.000000
29.710300 164.000000 12.806248
29.720600 164.000000 12.806248
29.730800 139.000000 11.789826
29.741000 158.000000 12.569805
29.751200 155.000000 12.449900
29.761400 129.000000 11.357817
29.771600 154.000000 12.409674
29.781900 183.000000 13.527749
29.792100 163.000000 12.767145
29.802300 147.000000 12.124356
29.812500 172.000000 13.114877
29.822700 170.000000 13.038405
29.833000 165.000000 12.845233
29.843200 155.000000 12.449900
29.853400 165.000000 12.845233
29.863600 187.000000 13.674794
29.873800 186.000000 13.638182
29.884000 189.000000 13.747727
29.894300 187.000000 13.674794
29.904500 181.000000 13.453624
29.914700 173.000000 13.152946
29.924900 155.000000 12.449900
29.935100 174.000000 13.190906
29.945300 163.000000 12.767145
29.955600 176.000000 13.266499
29.965800 160.000000 12.649111
29.976000 166.000000 12.884099
29.986200 145.000000 12.041595
29.996400 173.000000 13.152946
30.006700 148.000000 12.165525
30.016900 160.000000 12.649111
30.027100 157.000000 12.529964
30.037300 144.000000 12.000000
30.047500 167.000000 12.922848
30.057700 152.000000 12.328828
30.068000 172.000000 13.114877
30.078200 133.000000 11.532563
30.088400 142.000000 11.916375
30.098600 164.000000 12.806248
30.108800 134.000000 11.575837
30.119000 162.000000 12.727922
30.129300 142.000000 11.916375
30.139500 128.000000 11.313708
30.149700 152.000000 12.328828
30.159900 161.000000 12.688578
30.170100 152.000000 12.328828
30.180400 153.000000 12.369317
30.190600 129.000000 11.357817
30.200800 158.000000 12.569805
30.211000 159.000000 12.609520
30.221200 160.000000 12.649111
30.231400 148.000000 12.165525
30.241700 195.000000 13.964240
30.251900 147.000000 12.124356
30.262100 162.000000 12.727922
30.272300 154.000000 12.409674
30.282500 148.000000 12.165525
30.292700 124.000000 11.135529
30.303000 152.000000 12.328828
30.313200 144.000000 12.000000
30.323400 131.000000 11.445523
30.333600 140.000000 11.832160
30.343800 123.000000 11.090537
30.354100 168.000000 12.961481
30.364300 155.000000 12.449900
30.374500 117.000000 10.816654
30.384700 135.000000 11.618950
30.394900 151.000000 12.288206
30.405100 125.000000 11.180340
30.415400 153.000000 12.369317
30.425600 140.000000 11.832160
30.435800 132.000000 11.489125
30.446000 129.000000 11.357817
30.456200 154.000000 12.409674
30.466400 147.000000 12.124356
30.476700 144.000000 12.000000
30.486900 147.000000 12.124356
30.497100 130.000000 11.401754
30.507300 158.000000 12.569805
30.517500 134.000000 11.575837
30.527800 140.000000 11.832160
30.538000 133.000000 11.532563
30.548200 126.000000 11.224972
30.558400 134.000000 11.575837
30.568600 144.000000 12.000000
30.578800 134.000000 11.575837
30.589100 120.000000 10.954451
30.599300 131.000000 11.445523
30.609500 139.000000 11.789826
30.619700 163.000000 12.767145
30.629900 128.000000 11.313708
30.640100 161.000000 12.688578
30.650400 144.000000 12.000000
30.660600 155.000000 12.449900
30.670800 146.000000 12.083046
30.681000 147.000000 12.124356
30.691200 145.000000 12.041595
30.701500 140.000000 11.832160
30.711700 145.000000 12.041595
30.721900 141.000000 11.874342
30.732100 130.000000 11.401754
30.742300 150.000000 12.247449
30.752500 131.000000 11.445523
30.762800 146.000000 12.083046
30.773000 132.000000 11.489125
30.783200 155.000000 12.449900
30.793400 135.000000 11.618950
30.803600 127.000000 11.269428
30.813800 134.000000 11.575837
30.824100 144.000000 12.000000
30.834300 139.000000 11.789826
30.844500 139.000000 11.789826
30.854700 147.000000 12.124356
30.864900 120.000000 10.954451
30.875200 165.000000 12.845233
30.885400 137.000000 11.704700
30.895600 135.000000 11.618950
30.905800 158.000000 12.569805
30.916000 171.000000 13.076697
30.926200 138.000000 11.747340
30.936500 134.000000 11.575837
30.946700 135.000000 11.618950
30.956900 132.000000 11.489125
30.967100 150.000000 12.247449
30.977300 123.000000 11.090537
30.987500 157.000000 12.529964
30.997800 135.000000 11.618950
31.008000 130.000000 11.401754
31.018200 128.000000 11.313708
31.028400 125.000000 11.180340
31.038600 139.000000 11.789826
31.048900 131.000000 11.445523
31.059100 142.000000 11.916375
31.069300 163.000000 12.767145
31.079500 150.000000 12.247449
31.089700 146.000000 12.083046
31.099900 126.000000 11.224972
31.110200 128.000000 11.313708
31.120400 132.000000 11.489125
31.130600 134.000000 11.575837
31.140800 143.000000 11.958261
31.151000 137.000000 11.704700
31.161200 139.000000 11.789826
31.171500 126.000000 11.224972
31.181700 120.000000 10.954451
31.191900 134.000000 11.575837
31.202100 160.000000 12.649111
31.212300 168.000000 12.961481
31.222600 162.000000 12.727922
31.232800 123.000000 11.090537
31.243000 143.000000 11.958261
31.253200 125.000000 11.180340
31.263400 134.000000 11.575837
31.273600 140.000000 11.832160
31.283900 152.000000 12.328828
31.294100 152.000000 12.328828
31.304300 169.000000 13.000000
31.314500 149.000000 12.206556
31.324700 160.000000 12.649111
31.334900 138.000000 11.747340
31.345200 156.000000 12.489996
31.355400 152.000000 12.328828
31.365600 140.000000 11.832160
31.375800 153.000000 12.369317
31.386000 154.000000 12.409674
31.396300 158.000000 12.569805
31.406500 143.000000 11.958261
31.416700 133.000000 11.532563
31.426900 149.000000 12.206556
31.437100 149.000000 12.206556
31.447300 164.000000 12.806248
31.457600 134.000000 11.575837
31.467800 144.000000 12.000000
31.478000 169.000000 13.000000
31.488200 154.000000 12.409674
31.498400 170.000000 13.038405
31.508600 146.000000 12.083046
31.518900 166.000000 12.884099
31.529100 154.000000 12.409674
31.539300 174.000000 13.190906
31.549500 179.000000 13.379088
31.559700 149.000000 12.206556
31.570000 172.000000 13.114877
31.580200 158.000000 12.569805
31.590400 192.000000 13.856406
31.600600 171.000000 13.076697
31.610800 192.000000 13.856406
31.621000 179.000000 13.379088
31.631300 185.000000 13.601471
31.641500 192.000000 13.856406
31.651700 161.000000 12.688578
31.661900 169.000000 13.000000
31.672100 175.000000 13.228757
31.682300 163.000000 12.767145
31.692600 164.000000 12.806248
31.702800 165.000000 12.845233
31.713000 190.000000 13.784049
31.723200 165.000000 12.845233
31.733400 195.000000 13.964240
31.743700 152.000000 12.328828
31.753900 176.000000 13.266499
31.764100 151.000000 12.288206
31.774300 160.000000 12.649111
31.784500 179.000000 13.379088
31.794700 179.000000 13.379088
31.805000 178.000000 13.341664
31.815200 148.000000 12.165525
31.825400 162.000000 12.727922
31.835600 179.000000 13.379088
31.845800 148.000000 12.165525
31.856000 141.000000 11.874342
31.866300 142.000000 11.916375
31.876500 151.000000 12.288206
31.886700 133.000000 11.532563
31.896900 146.000000 12.083046
31.907100 138.000000 11.747340
31.917400 139.000000 11.789826
31.927600 128.000000 11.313708
31.937800 151.000000 12.288206
31.948000 142.000000 11.916375
31.958200 129.000000 11.357817
31.968400 168.000000 12.961481
31.978700 139.000000 11.789826
31.988900 151.000000 12.288206
31.999100 167.000000 12.922848
32.009300 160.000000 12.649111
32.019500 161.000000 12.688578
32.029700 131.000000 11.445523
32.040000 139.000000 11.789826
32.050200 130.000000 11.401754
32.060400 133.000000 11.532563
32.070600 134.000000 11.575837
32.080800 124.000000 11.135529
32.091100 137.000000 11.704700
32.101300 163.000000 12.767145
32.111500 132.000000 11.489125
32.121700 144.000000 12.000000
32.131900 133.000000 11.532563
32.142100 121.000000 11.000000
32.152400 144.000000 12.000000
32.162600 132.000000 11.489125
32.172800 123.000000 11.090537
32.183000 152.000000 12.328828
32.193200 139.000000 11.789826
32.203400 139.000000 11.789826
32.213700 124.000000 11.135529
32.223900 114.000000 10.677078
32.234100 110.000000 10.488088
32.244300 125.000000 11.180340
32.254500 122.000000 11.045361
32.264800 129.000000 11.357817
32.275000 109.000000 10.440307
32.285200 130.000000 11.401754
32.295400 133.000000 11.532563
32.305600 121.000000 11.000000
32.315800 115.000000 10.723805
32.326100 133.000000 11.532563
32.336300 131.000000 11.445523
32.346500 121.000000 11.000000
32.356700 137.000000 11.704700
32.366900 134.000000 11.575837
32.377100 121.000000 11.000000
32.387400 95.000000 9.746794
32.397600 122.000000 11.045361
32.407800 126.000000 11.224972
32.418000 114.000000 10.677078
32.428200 145.000000 12.041595
32.438500 109.000000 10.440307
32.448700 123.000000 11.090537
32.458900 138.000000 11.747340
32.469100 140.000000 11.832160
32.479300 111.000000 10.535654
32.489500 146.000000 12.083046
32.499800 132.000000 11.489125
32.510000 146.000000 12.083046
32.520200 146.000000 12.083046
32.530400 122.000000 11.045361
32.540600 124.000000 11.135529
32.550800 117.000000 10.816654
32.561100 129.000000 11.357817
32.571300 120.000000 10.954451
32.581500 140.000000 11.832160
32.591700 121.000000 11.000000
32.601900 125.000000 11.180340
32.612200 114.000000 10.677078
32.622400 138.000000 11.747340
32.632600 126.000000 11.224972
32.642800 133.000000 11.532563
32.653000 124.000000 11.135529
32.663200 116.000000 10.770330
32.673500 119.000000 10.908712
32.683700 111.000000 10.535654
32.693900 123.000000 11.090537
32.704100 113.000000 10.630146
32.714300 127.000000 11.269428
32.724500 131.000000 11.445523
32.734800 117.000000 10.816654
32.745000 136.000000 11.661904
32.755200 129.000000 11.357817
32.765400 133.000000 11.532563
32.775600 121.000000 11.000000
32.785900 125.000000 11.180340
32.796100 129.000000 11.357817
32.806300 118.000000 10.862780
32.816500 142.000000 11.916375
32.826700 122.000000 11.045361
32.836900 128.000000 11.313708
32.847200 120.000000 10.954451
32.857400 154.000000 12.409674
32.867600 120.000000 10.954451
32.877800 125.000000 11.180340
32.888000 108.000000 10.392305
32.898200 104.000000 10.198039
32.908500 142.000000 11.916375
32.918700 141.000000 11.874342
32.928900 132.000000 11.489125
32.939100 127.000000 11.269428
32.949300 149.000000 12.206556
32.959600 149.000000 12.206556
32.969800 128.000000 11.313708
32.980000 119.000000 10.908712
32.990200 124.000000 11.135529
33.000400 163.000000 12.767145
33.010600 129.000000 11.357817
33.020900 123.000000 11.090537
33.031100 134.000000 11.575837
33.041300 146.000000 12.083046
33.051500 188.000000 13.711309
33.061700 157.000000 12.529964
33.071900 211.000000 14.525839
33.082200 199.000000 14.106736
33.092400 196.000000 14.000000
33.102600 172.000000 13.114877
33.112800 177.000000 13.304135
33.123000 171.000000 13.076697
33.133300 221.000000 14.866069
33.143500 221.000000 14.866069
33.153700 239.000000 15.459625
33.163900 257.000000 16.031220
33.174100 250.000000 15.811388
33.184300 200.000000 14.142136
33.194600 165.000000 12.845233
33.204800 171.000000 13.076697
33.215000 183.000000 13.527749
33.225200 189.000000 13.747727
33.235400 166.000000 12.884099
33.245600 176.000000 13.266499
33.255900 171.000000 13.076697
33.266100 152.000000 12.328828
33.276300 158.000000 12.569805
33.286500 142.000000 11.916375
33.296700 148.000000 12.165525
33.307000 134.000000 11.575837
33.317200 158.000000 12.569805
33.327400 127.000000 11.269428
33.337600 131.000000 11.445523
33.347800 123.000000 11.090537
33.358000 125.000000 11.180340
33.368300 126.000000 11.224972
33.378500 117.000000 10.816654
33.388700 129.000000 11.357817
33.398900 124.000000 11.135529
33.409100 115.000000 10.723805
33.419300 110.000000 10.488088
33.429600 107.000000 10.344080
33.439800 104.000000 10.198039
33.450000 121.000000 11.000000
33.460200 118.000000 10.862780
33.470400 122.000000 11.045361
33.480700 110.000000 10.488088
33.490900 116.000000 10.770330
33.501100 125.000000 11.180340
33.511300 134.000000 11.575837
33.521500 103.000000 10.148892
33.531700 108.000000 10.392305
33.542000 113.000000 10.630146
33.552200 125.000000 11.180340
33.562400 93.000000 9.643651
33.572600 109.000000 10.440307
33.582800 100.000000 10.000000
33.593000 114.000000 10.677078
33.603300 112.000000 10.583005
33.613500 125.000000 11.180340
33.623700 101.000000 10.049876
33.633900 125.000000 11.180340
33.644100 107.000000 10.344080
33.654400 109.000000 10.440307
33.664600 120.000000 10.954451
33.674800 95.000000 9.746794
33.685000 101.000000 10.049876
33.695200 126.000000 11.224972
33.705400 100.000000 10.000000
33.715700 96.000000 9.797959
33.725900 101.000000 10.049876
33.736100 103.000000 10.148892
33.746300 127.000000 11.269428
33.756500 124.000000 11.135529
33.766700 117.000000 10.816654
33.777000 121.000000 11.000000
33.787200 105.000000 10.246951
33.797400 106.000000 10.295630
33.807600 115.000000 10.723805
33.817800 101.000000 10.049876
33.828100 105.000000 10.246951
33.838300 131.000000 11.445523
33.848500 101.000000 10.049876
33.858700 118.000000 10.862780
33.868900 102.000000 10.099505
33.879100 111.000000 10.535654
33.889400 110.000000 10.488088
33.899600 101.000000 10.049876
33.909800 106.000000 10.295630
33.920000 112.000000 10.583005
33.930200 114.000000 10.677078
33.940500 112.000000 10.583005
33.950700 105.000000 10.246951
33.960900 105.000000 10.246951
33.971100 103.000000 10.148892
33.981300 116.000000 10.770330
33.991500 103.000000 10.148892
34.001800 112.000000 10.583005
34.012000 95.000000 9.746794
34.022200 89.000000 9.433981
34.032400 113.000000 10.630146
34.042600 110.000000 10.488088
34.052800 107.000000 10.344080
34.063100 108.000000 10.392305
34.073300 94.000000 9.695360
34.083500 109.000000 10.440307
34.093700 108.000000 10.392305
34.103900 126.000000 11.224972
34.114200 116.000000 10.770330
34.124400 106.000000 10.295630
34.134600 89.000000 9.433981
34.144800 116.000000 10.770330
34.155000 101.000000 10.049876
34.165200 87.000000 9.327379
34.175500 112.000000 10.583005
34.185700 111.000000 10.535654
34.195900 91.000000 9.539392
34.206100 118.000000 10.862780
34.216300 125.000000 11.180340
34.226500 111.000000 10.535654
34.236800 104.000000 10.198039
34.247000 112.000000 10.583005
34.257200 121.000000 11.000000
34.267400 110.000000 10.488088
34.277600 104.000000 10.198039
34.287900 123.000000 11.090537
34.298100 118.000000 10.862780
34.308300 112.000000 10.583005
34.318500 114.000000 10.677078
34.328700 112.000000 10.583005
34.338900 99.000000 9.949874
34.349200 117.000000 10.816654
34.359400 107.000000 10.344080
34.369600 107.000000 10.344080
34.379800 101.000000 10.049876
34.390000 121.000000 11.000000
34.400200 116.000000 10.770330
34.410500 112.000000 10.583005
34.420700 96.000000 9.797959
34.430900 119.000000 10.908712
34.441100 113.000000 10.630146
34.451300 109.000000 10.440307
34.461600 141.000000 11.874342
34.471800 118.000000 10.862780
34.482000 118.000000 10.862780
34.492200 117.000000 10.816654
34.502400 91.000000 9.539392
34.512600 112.000000 10.583005
34.522900 97.000000 9.848858
34.533100 124.000000 11.135529
34.543300 120.000000 10.954451
34.553500 125.000000 11.180340
34.563700 107.000000 10.344080
34.573900 129.000000 11.357817
34.584200 138.000000 11.747340
34.594400 137.000000 11.704700
34.604600 145.000000 12.041595
34.614800 143.000000 11.958261
34.625000 119.000000 10.908712
34.635300 130.000000 11.401754
34.645500 123.000000 11.090537
34.655700 112.000000 10.583005
34.665900 128.000000 11.313708
34.676100 131.000000 11.445523
34.686300 120.000000 10.954451
34.696600 108.000000 10.392305
34.706800 113.000000 10.630146
34.717000 118.000000 10.862780
34.727200 116.000000 10.770330
34.737400 105.000000 10.246951
34.747600 107.000000 10.344080
34.757900 110.000000 10.488088
34.768100 105.000000 10.246951
34.778300 122.000000 11.045361
34.788500 122.000000 11.045361
34.798700 130.000000 11.401754
34.809000 155.000000 12.449900
34.819200 140.000000 11.832160
34.829400 150.000000 12.247449
34.839600 152.000000 12.328828
34.849800 146.000000 12.083046
34.860000 146.000000 12.083046
34.870300 116.000000 10.770330
34.880500 117.000000 10.816654
34.890700 111.000000 10.535654
34.900900 121.000000 11.000000
34.911100 135.000000 11.618950
34.921300 121.000000 11.000000
34.931600 139.000000 11.789826
34.941800 130.000000 11.401754
34.952000 119.000000 10.908712
34.962200 107.000000 10.344080
34.972400 103.000000 10.148892
34.982700 98.000000 9.899495
34.992900 112.000000 10.583005
35.003100 119.000000 10.908712
35.013300 111.000000 10.535654
35.023500 110.000000 10.488088
35.033700 108.000000 10.392305
35.044000 109.000000 10.440307
35.054200 124.000000 11.135529
35.064400 98.000000 9.899495
35.074600 103.000000 10.148892
35.084800 97.000000 9.848858
35.095000 99.000000 9.949874
35.105300 106.000000 10.295630
35.115500 114.000000 10.677078
35.125700 113.000000 10.630146
35.135900 100.000000 10.000000
35.146100 103.000000 10.148892
35.156400 121.000000 11.000000
35.166600 115.000000 10.723805
35.176800 117.000000 10.816654
35.187000 97.000000 9.848858
35.197200 107.000000 10.344080
35.207400 112.000000 10.583005
35.217700 111.000000 10.535654
35.227900 103.000000 10.148892
35.238100 102.000000 10.099505
35.248300 98.000000 9.899495
35.258500 109.000000 10.440307
35.268700 117.000000 10.816654
35.279000 80.000000 8.944272
35.289200 103.000000 10.148892
35.299400 93.000000 9.643651
35.309600 115.000000 10.723805
35.319800 92.000000 9.591663
35.330100 109.000000 10.440307
35.340300 84.000000 9.165151
35.350500 89.000000 9.433981
35.360700 106.000000 10.295630
35.370900 107.000000 10.344080
35.381100 103.000000 10.148892
35.391400 132.000000 11.489125
35.401600 127.000000 11.269428
35.411800 124.000000 11.135529
35.422000 110.000000 10.488088
35.432200 87.000000 9.327379
35.442400 102.000000 10.099505
35.452700 110.000000 10.488088
35.462900 96.000000 9.797959
35.473100 110.000000 10.488088
35.483300 102.000000 10.099505
35.493500 111.000000 10.535654
35.503800 102.000000 10.099505
35.514000 109.000000 10.440307
35.524200 98.000000 9.899495
35.534400 98.000000 9.899495
35.544600 113.000000 10.630146
35.554800 111.000000 10.535654
35.565100 100.000000 10.000000
35.575300 107.000000 10.344080
35.585500 103.000000 10.148892
35.595700 99.000000 9.949874
35.605900 112.000000 10.583005
35.616100 106.000000 10.295630
35.626400 124.000000 11.135529
35.636600 101.000000 10.049876
35.646800 100.000000 10.000000
35.657000 106.000000 10.295630
35.667200 90.000000 9.486833
35.677500 97.000000 9.848858
35.687700 104.000000 10.198039
35.697900 97.000000 9.848858
35.708100 97.000000 9.848858
35.718300 106.000000 10.295630
35.728500 108.000000 10.392305
35.738800 104.000000 10.198039
35.749000 108.000000 10.392305
35.759200 115.000000 10.723805
35.769400 89.000000 9.433981
35.779600 103.000000 10.148892
35.789800 102.000000 10.099505
35.800100 109.000000 10.440307
35.810300 128.000000 11.313708
35.820500 108.000000 10.392305
35.830700 103.000000 10.148892
35.840900 96.000000 9.797959
35.851200 99.000000 9.949874
35.861400 105.000000 10.246951
35.871600 94.000000 9.695360
35.881800 85.000000 9.219544
35.892000 103.000000 10.148892
35.902200 127.000000 11.269428
35.912500 100.000000 10.000000
35.922700 92.000000 9.591663
35.932900 112.000000 10.583005
35.943100 107.000000 10.344080
35.953300 84.000000 9.165151
35.963500 94.000000 9.695360
35.973800 105.000000 10.246951
35.984000 103.000000 10.148892
35.994200 103.000000 10.148892
36.004400 99.000000 9.949874
36.014600 100.000000 10.000000
36.024900 95.000000 9.746794
36.035100 110.000000 10.488088
36.045300 86.000000 9.273618
36.055500 102.000000 10.099505
36.065700 91.000000 9.539392
36.075900 91.000000 9.539392
36.086200 101.000000 10.049876
36.096400 97.000000 9.848858
36.106600 121.000000 11.000000
36.116800 94.000000 9.695360
36.127000 92.000000 9.591663
36.137200 120.000000 10.954451
36.147500 91.000000 9.539392
36.157700 90.000000 9.486833
36.167900 98.000000 9.899495
36.178100 90.000000 9.486833
36.188300 107.000000 10.344080
36.198600 94.000000 9.695360
36.208800 101.000000 10.049876
36.219000 108.000000 10.392305
36.229200 105.000000 10.246951
36.239400 104.000000 10.198039
36.249600 94.000000 9.695360
36.259900 100.000000 10.000000
36.270100 90.000000 9.486833
36.280300 92.000000 9.591663
36.290500 100.000000 10.000000
36.300700 92.000000 9.591663
36.310900 90.000000 9.486833
36.321200 103.000000 10.148892
36.331400 95.000000 9.746794
36.341600 110.000000 10.488088
36.351800 95.000000 9.746794
36.362000 109.000000 10.440307
36.372300 86.000000 9.273618
36.382500 98.000000 9.899495
36.392700 123.000000 11.090537
36.402900 105.000000 10.246951
36.413100 118.000000 10.862780
36.423300 110.000000 10.488088
36.433600 100.000000 10.000000
36.443800 117.000000 10.816654
36.454000 127.000000 11.269428
36.464200 145.000000 12.041595
36.474400 147.000000 12.124356
36.484600 136.000000 11.661904
36.494900 155.000000 12.449900
36.505100 144.000000 12.000000
36.515300 139.000000 11.789826
36.525500 140.000000 11.832160
36.535700 106.000000 10.295630
36.546000 106.000000 10.295630
36.556200 122.000000 11.045361
36.566400 111.000000 10.535654
36.576600 124.000000 11.135529
36.586800 125.000000 11.180340
36.597000 114.000000 10.677078
36.607300 116.000000 10.770330
36.617500 112.000000 10.583005
36.627700 108.000000 10.392305
36.637900 116.000000 10.770330
36.648100 100.000000 10.000000
36.658300 110.000000 10.488088
36.668600 103.000000 10.148892
36.678800 84.000000 9.165151
36.689000 93.000000 9.643651
36.699200 93.000000 9.643651
36.709400 113.000000 10.630146
36.719700 90.000000 9.486833
36.729900 99.000000 9.949874
36.740100 101.000000 10.049876
36.750300 101.000000 10.049876
36.760500 103.000000 10.148892
36.770700 112.000000 10.583005
36.781000 109.000000 10.440307
36.791200 109.000000 10.440307
36.801400 108.000000 10.392305
36.811600 105.000000 10.246951
36.821800 110.000000 10.488088
36.832000 129.000000 11.357817
36.842300 92.000000 9.591663
36.852500 115.000000 10.723805
36.862700 99.000000 9.949874
36.872900 91.000000 9.539392
36.883100 110.000000 10.488088
36.893400 110.000000 10.488088
36.903600 100.000000 10.000000
36.913800 115.000000 10.723805
36.924000 112.000000 10.583005
36.934200 100.000000 10.000000
36.944400 126.000000 11.224972
36.954700 92.000000 9.591663
36.964900 94.000000 9.695360
36.975100 102.000000 10.099505
36.985300 95.000000 9.746794
36.995500 116.000000 10.770330
37.005700 85.000000 9.219544
37.016000 112.000000 10.583005
37.026200 88.000000 9.380832
37.036400 111.000000 10.535654
37.046600 114.000000 10.677078
37.056800 97.000000 9.848858
37.067100 116.000000 10.770330
37.077300 118.000000 10.862780
37.087500 104.000000 10.198039
37.097700 107.000000 10.344080
37.107900 122.000000 11.045361
37.118100 100.000000 10.000000
37.128400 113.000000 10.630146
37.138600 106.000000 10.295630
37.148800 122.000000 11.045361
37.159000 116.000000 10.770330
37.169200 111.000000 10.535654
37.179400 137.000000 11.704700
37.189700 126.000000 11.224972
37.199900 103.000000 10.148892
37.210100 138.000000 11.747340
37.220300 120.000000 10.954451
37.230500 138.000000 11.747340
37.240800 146.000000 12.083046
37.251000 116.000000 10.770330
37.261200 116.000000 10.770330
37.271400 118.000000 10.862780
37.281600 138.000000 11.747340
37.291800 117.000000 10.816654
37.302100 117.000000 10.816654
37.312300 132.000000 11.489125
37.322500 99.000000 9.949874
37.332700 151.000000 12.288206
37.342900 124.000000 11.135529
37.353100 116.000000 10.770330
37.363400 111.000000 10.535654
37.373600 130.000000 11.401754
37.383800 120.000000 10.954451
37.394000 124.000000 11.135529
37.404200 111.000000 10.535654
37.414500 92.000000 9.591663
37.424700 99.000000 9.949874
37.434900 117.000000 10.816654
37.445100 99.000000 9.949874
37.455300 103.000000 10.148892
37.465500 93.000000 9.643651
37.475800 117.000000 10.816654
37.486000 131.000000 11.445523
37.496200 111.000000 10.535654
37.506400 100.000000 10.000000
37.516600 110.000000 10.488088
37.526800 118.000000 10.862780
37.537100 100.000000 10.000000
37.547300 100.000000 10.000000
37.557500 113.000000 10.630146
37.567700 108.000000 10.392305
37.577900 109.000000 10.440307
37.588200 108.000000 10.392305
37.598400 107.000000 10.344080
37.608600 113.000000 10.630146
37.618800 124.000000 11.135529
37.629000 111.000000 10.535654
37.639200 90.000000 9.486833
37.649500 97.000000 9.848858
37.659700 91.000000 9.539392
37.669900 107.000000 10.344080
37.680100 95.000000 9.746794
37.690300 113.000000 10.630146
37.700500 121.000000 11.000000
37.710800 98.000000 9.899495
37.721000 97.000000 9.848858
37.731200 89.000000 9.433981
37.741400 97.000000 9.848858
37.751600 109.000000 10.440307
37.761900 128.000000 11.313708
37.772100 112.000000 10.583005
37.782300 104.000000 10.198039
37.792500 103.000000 10.148892
37.802700 113.000000 10.630146
37.812900 120.000000 10.954451
37.823200 105.000000 10.246951
37.833400 105.000000 10.246951
37.843600 101.000000 10.049876
37.853800 91.000000 9.539392
37.864000 106.000000 10.295630
37.874200 104.000000 10.198039
37.884500 101.000000 10.049876
37.894700 106.000000 10.295630
37.904900 112.000000 10.583005
37.915100 83.000000 9.110434
37.925300 96.000000 9.797959
37.935600 94.000000 9.695360
37.945800 91.000000 9.539392
37.956000 89.000000 9.433981
37.966200 117.000000 10.816654
37.976400 116.000000 10.770330
37.986600 91.000000 9.539392
37.996900 91.000000 9.539392
38.007100 103.000000 10.148892
38.017300 85.000000 9.219544
38.027500 117.000000 10.816654
38.037700 100.000000 10.000000
38.047900 101.000000 10.049876
38.058200 84.000000 9.165151
38.068400 90.000000 9.486833
38.078600 104.000000 10.198039
38.088800 83.000000 9.110434
38.099000 113.000000 10.630146
38.109300 94.000000 9.695360
38.119500 113.000000 10.630146
38.129700 89.000000 9.433981
38.139900 98.000000 9.899495
38.150100 93.000000 9.643651
38.160300 88.000000 9.380832
38.170600 102.000000 10.099505
38.180800 89.000000 9.433981
38.191000 91.000000 9.539392
38.201200 102.000000 10.099505
38.211400 82.000000 9.055385
38.221600 87.000000 9.327379
38.231900 87.000000 9.327379
38.242100 87.000000 9.327379
38.252300 92.000000 9.591663
38.262500 96.000000 9.797959
38.272700 84.000000 9.165151
38.283000 92.000000 9.591663
38.293200 89.000000 9.433981
38.303400 109.000000 10.440307
38.313600 95.000000 9.746794
38.323800 87.000000 9.327379
38.334000 79.000000 8.888194
38.344300 96.000000 9.797959
38.354500 95.000000 9.746794
38.364700 90.000000 9.486833
38.374900 86.000000 9.273618
38.385100 110.000000 10.488088
38.395300 117.000000 10.816654
38.405600 97.000000 9.848858
38.415800 100.000000 10.000000
38.426000 77.000000 8.774964
38.436200 88.000000 9.380832
38.446400 86.000000 9.273618
38.456700 100.000000 10.000000
38.466900 92.000000 9.591663
38.477100 87.000000 9.327379
38.487300 108.000000 10.392305
38.497500 90.000000 9.486833
38.507700 78.000000 8.831761
38.518000 105.000000 10.246951
38.528200 104.000000 10.198039
38.538400 83.000000 9.110434
38.548600 106.000000 10.295630
38.558800 106.000000 10.295630
38.569000 81.000000 9.000000
38.579300 100.000000 10.000000
38.589500 94.000000 9.695360
38.599700 85.000000 9.219544
38.609900 86.000000 9.273618
38.620100 98.000000 9.899495
38.630400 82.000000 9.055385
38.640600 82.000000 9.055385
38.650800 95.000000 9.746794
38.661000 113.000000 10.630146
38.671200 89.000000 9.433981
38.681400 91.000000 9.539392
38.691700 93.000000 9.643651
38.701900 106.000000 10.295630
38.712100 98.000000 9.899495
38.722300 102.000000 10.099505
38.732500 80.000000 8.944272
38.742700 97.000000 9.848858
38.753000 87.000000 9.327379
38.763200 103.000000 10.148892
38.773400 80.000000 8.944272
38.783600 68.000000 8.246211
38.793800 77.000000 8.774964
38.804100 105.000000 10.246951
38.814300 93.000000 9.643651
38.824500 90.000000 9.486833
38.834700 87.000000 9.327379
38.844900 98.000000 9.899495
38.855100 88.000000 9.380832
38.865400 94.000000 9.695360
38.875600 87.000000 9.327379
38.885800 85.000000 9.219544
38.896000 97.000000 9.848858
38.906200 86.000000 9.273618
38.916400 87.000000 9.327379
38.926700 94.000000 9.695360
38.936900 92.000000 9.591663
38.947100 78.000000 8.831761
38.957300 83.000000 9.110434
38.967500 103.000000 10.148892
38.977800 95.000000 9.746794
38.988000 89.000000 9.433981
38.998200 95.000000 9.746794
39.008400 92.000000 9.591663
39.018600 74.000000 8.602325
39.028800 101.000000 10.049876
39.039100 106.000000 10.295630
39.049300 91.000000 9.539392
39.059500 82.000000 9.055385
39.069700 111.000000 10.535654
39.079900 96.000000 9.797959
39.090100 96.000000 9.797959
39.100400 93.000000 9.643651
39.110600 81.000000 9.000000
39.120800 81.000000 9.000000
39.131000 100.000000 10.000000
39.141200 95.000000 9.746794
39.151500 86.000000 9.273618
39.161700 96.000000 9.797959
39.171900 92.000000 9.591663
39.182100 89.000000 9.433981
39.192300 104.000000 10.198039
39.202500 92.000000 9.591663
39.212800 103.000000 10.148892
39.223000 96.000000 9.797959
39.233200 110.000000 10.488088
39.243400 103.000000 10.148892
39.253600 105.000000 10.246951
39.263900 94.000000 9.695360
39.274100 88.000000 9.380832
39.284300 80.000000 8.944272
39.294500 95.000000 9.746794
39.304700 83.000000 9.110434
39.314900 98.000000 9.899495
39.325200 95.000000 9.746794
39.335400 90.000000 9.486833
39.345600 77.000000 8.774964
39.355800 97.000000 9.848858
39.366000 97.000000 9.848858
39.376200 92.000000 9.591663
39.386500 80.000000 8.944272
39.396700 76.000000 8.717798
39.406900 84.000000 9.165151
39.417100 92.000000 9.591663
39.427300 109.000000 10.440307
39.437600 80.000000 8.944272
39.447800 89.000000 9.433981
39.458000 95.000000 9.746794
39.468200 93.000000 9.643651
39.478400 107.000000 10.344080
39.488600 74.000000 8.602325
39.498900 89.000000 9.433981
39.509100 94.000000 9.695360
39.519300 83.000000 9.110434
39.529500 88.000000 9.380832
39.539700 90.000000 9.486833
39.549900 93.000000 9.643651
39.560200 89.000000 9.433981
39.570400 95.000000 9.746794
39.580600 86.000000 9.273618
39.590800 96.000000 9.797959
39.601000 90.000000 9.486833
39.611300 85.000000 9.219544
39.621500 92.000000 9.591663
39.631700 92.000000 9.591663
39.641900 78.000000 8.831761
39.652100 90.000000 9.486833
39.662300 94.000000 9.695360
39.672600 81.000000 9.000000
39.682800 76.000000 8.717798
39.693000 84.000000 9.165151
39.703200 82.000000 9.055385
39.713400 109.000000 10.440307
39.723600 80.000000 8.944272
39.733900 93.000000 9.643651
39.744100 105.000000 10.246951
39.754300 85.000000 9.219544
39.764500 82.000000 9.055385
39.774700 83.000000 9.110434
39.785000 88.000000 9.380832
39.795200 88.000000 9.380832
39.805400 81.000000 9.000000
39.815600 77.000000 8.774964
39.825800 85.000000 9.219544
39.836000 87.000000 9.327379
39.846300 85.000000 9.219544
39.856500 83.000000 9.110434
39.866700 89.000000 9.433981
39.876900 95.000000 9.746794
39.887100 93.000000 9.643651
39.897300 115.000000 10.723805
39.907600 98.000000 9.899495
39.917800 84.000000 9.165151
39.928000 95.000000 9.746794
39.938200 88.000000 9.380832
39.948400 86.000000 9.273618
39.958700 82.000000 9.055385
39.968900 86.000000 9.273618
39.979100 84.000000 9.165151
39.989300 88.000000 9.380832
39.999500 101.000000 10.049876
