# Two-Theta Intensity Error
5.000100 3581.000000 59.841457
5.017900 3487.000000 59.050826
5.035800 3588.000000 59.899917
5.053700 3468.000000 58.889727
5.071600 3381.000000 58.146367
5.089500 3481.000000 59.000000
5.107300 3585.000000 59.874870
5.125200 3488.000000 59.059292
5.143100 3354.000000 57.913729
5.161000 3421.000000 58.489315
5.178900 3575.000000 59.791304
5.196700 3443.000000 58.677082
5.214600 3500.000000 59.160798
5.232500 3499.000000 59.152346
5.250400 3533.000000 59.439044
5.268300 3397.000000 58.283788
5.286100 3527.000000 59.388551
5.304000 3455.000000 58.779248
5.321900 3471.000000 58.915193
5.339800 3389.000000 58.215118
5.357700 3469.000000 58.898217
5.375500 3599.000000 59.991666
5.393400 3484.000000 59.025418
5.411300 3421.000000 58.489315
5.429200 3454.000000 58.770741
5.447100 3546.000000 59.548300
5.465000 3542.000000 59.514704
5.482800 3526.000000 59.380131
5.500700 3464.000000 58.855756
5.518600 3470.000000 58.906706
5.536500 3445.000000 58.694122
5.554400 3470.000000 58.906706
5.572200 3533.000000 59.439044
5.590100 3448.000000 58.719673
5.608000 3591.000000 59.924953
5.625900 3557.000000 59.640590
5.643800 3516.000000 59.295868
5.661600 3365.000000 58.008620
5.679500 3507.000000 59.219929
5.697400 3488.000000 59.059292
5.715300 3496.000000 59.126982
5.733200 3455.000000 58.779248
5.751000 3414.000000 58.429445
5.768900 3545.000000 59.539903
5.786800 3525.000000 59.371710
5.804700 3534.000000 59.447456
5.822600 3558.000000 59.648973
5.840500 3600.000000 60.000000
5.858300 3630.000000 60.249481
5.876200 3573.000000 59.774577
5.894100 3646.000000 60.382117
5.912000 3505.000000 59.203040
5.929900 3498.000000 59.143892
5.947700 3500.000000 59.160798
5.965600 3662.000000 60.514461
5.983500 3623.000000 60.191362
6.001400 3535.000000 59.455866
6.019300 3746.000000 61.204575
6.037100 3583.000000 59.858166
6.055000 3673.000000 60.605280
6.072900 3707.000000 60.885138
6.090800 3801.000000 61.652251
6.108700 3712.000000 60.926185
6.126500 3791.000000 61.571097
6.144400 3739.000000 61.147363
6.162300 3882.000000 62.305698
6.180200 3800.000000 61.644140
6.198100 3820.000000 61.806149
6.216000 3833.000000 61.911227
6.233800 3891.000000 62.377881
6.251700 4044.000000 63.592452
6.269600 3914.000000 62.561969
6.287500 3915.000000 62.569961
6.305400 4047.000000 63.616036
6.323200 4023.000000 63.427124
6.341100 4086.000000 63.921827
6.359000 4143.000000 64.366140
6.376900 4546.000000 67.424031
6.394800 5428.000000 73.674962
6.412600 5481.000000 74.033776
6.430500 4683.000000 68.432448
6.448400 4288.000000 65.482822
6.466300 4336.000000 65.848311
6.484200 4240.000000 65.115282
6.502000 4398.000000 66.317419
6.519900 4515.000000 67.193750
6.537800 4506.000000 67.126746
6.555700 4564.000000 67.557383
6.573600 4568.000000 67.586981
6.591500 4713.000000 68.651293
6.609300 4675.000000 68.373972
6.627200 4765.000000 69.028979
6.645100 4963.000000 70.448563
6.663000 4962.000000 70.441465
6.680900 5030.000000 70.922493
6.698700 5031.000000 70.929543
6.716600 5141.000000 71.700767
6.734500 5239.000000 72.380937
6.752400 5297.000000 72.780492
6.770300 5371.000000 73.287107
6.788100 5586.000000 74.739548
6.806000 5427.000000 73.668175
6.823900 5725.000000 75.663730
6.841800 5806.000000 76.197113
6.859700 5814.000000 76.249590
6.877500 5941.000000 77.077883
6.895400 5945.000000 77.103826
6.913300 6071.000000 77.916622
6.931200 6121.000000 78.236820
6.949100 6251.000000 79.063266
6.966900 6266.000000 79.158070
6.984800 6462.000000 80.386566
7.002700 6404.000000 80.024996
7.020600 6388.000000 79.924965
7.038500 6598.000000 81.228074
7.056400 6679.000000 81.725149
7.074200 6797.000000 82.443920
7.092100 6691.000000 81.798533
7.110000 6789.000000 82.395388
7.127900 6877.000000 82.927679
7.145800 6972.000000 83.498503
7.163600 7010.000000 83.725743
7.181500 7176.000000 84.711274
7.199400 7151.000000 84.563586
7.217300 7072.000000 84.095184
7.235200 7104.000000 84.285230
7.253000 6993.000000 83.624159
7.270900 7252.000000 85.158675
7.288800 7172.000000 84.687661
7.306700 7041.000000 83.910667
7.324600 7106.000000 84.297094
7.342400 7211.000000 84.917607
7.360300 7287.000000 85.363927
7.378200 7231.000000 85.035287
7.396100 7311.000000 85.504386
7.414000 7131.000000 84.445249
7.431900 7186.000000 84.770278
7.449700 7222.000000 84.982351
7.467600 7104.000000 84.285230
7.485500 7070.000000 84.083292
7.503400 7151.000000 84.563586
7.521300 7059.000000 84.017855
7.539100 7042.000000 83.916625
7.557000 7111.000000 84.326745
7.574900 7035.000000 83.874907
7.592800 7055.000000 83.994047
7.610700 7005.000000 83.695878
7.628500 6986.000000 83.582295
7.646400 6923.000000 83.204567
7.664300 6966.000000 83.462566
7.682200 6792.000000 82.413591
7.700100 6881.000000 82.951793
7.717900 6769.000000 82.273933
7.735800 6799.000000 82.456049
7.753700 6790.000000 82.401456
7.771600 6867.000000 82.867364
7.789500 6485.000000 80.529498
7.807400 6583.000000 81.135689
7.825200 6457.000000 80.355460
7.843100 6684.000000 81.755734
7.861000 6571.000000 81.061705
7.878900 6513.000000 80.703160
7.896800 6510.000000 80.684571
7.914600 6558.000000 80.981479
7.932500 6516.000000 80.721744
7.950400 6516.000000 80.721744
7.968300 6480.000000 80.498447
7.986200 6433.000000 80.205985
8.004000 6265.000000 79.151753
8.021900 6352.000000 79.699435
8.039800 6268.000000 79.170702
8.057700 6328.000000 79.548727
8.075600 6304.000000 79.397733
8.093400 6222.000000 78.879655
8.111300 6158.000000 78.472925
8.129200 6365.000000 79.780950
8.147100 6223.000000 78.885994
8.165000 6100.000000 78.102497
8.182900 6354.000000 79.711982
8.200700 6202.000000 78.752778
8.218600 6200.000000 78.740079
8.236500 6043.000000 77.736735
8.254400 6268.000000 79.170702
8.272300 6276.000000 79.221209
8.290100 6273.000000 79.202273
8.308000 6221.000000 78.873316
8.325900 6275.000000 79.214898
8.343800 6299.000000 79.366240
8.361700 6199.000000 78.733728
8.379500 6128.000000 78.281543
8.397400 6149.000000 78.415560
8.415300 6105.000000 78.134499
8.433200 6178.000000 78.600254
8.451100 6122.000000 78.243211
8.468900 6159.000000 78.479297
8.486800 6211.000000 78.809898
8.504700 6154.000000 78.447435
8.522600 6127.000000 78.275156
8.540500 6193.000000 78.695616
8.558300 6278.000000 79.233831
8.576200 6204.000000 78.765475
8.594100 6184.000000 78.638413
8.612000 6330.000000 79.561297
8.629900 6175.000000 78.581168
8.647800 6069.000000 77.903787
8.665600 6269.000000 79.177017
8.683500 6175.000000 78.581168
8.701400 6440.000000 80.249611
8.719300 6155.000000 78.453808
8.737200 6390.000000 79.937476
8.755000 6253.000000 79.075913
8.772900 6291.000000 79.315824
8.790800 6188.000000 78.663842
8.808700 6408.000000 80.049984
8.826600 6219.000000 78.860637
8.844400 6404.000000 80.024996
8.862300 6313.000000 79.454389
8.880200 6309.000000 79.429214
8.898100 6227.000000 78.911343
8.916000 6412.000000 80.074965
8.933800 6216.000000 78.841613
8.951700 6337.000000 79.605276
8.969600 6297.000000 79.353639
8.987500 6342.000000 79.636675
9.005400 6487.000000 80.541915
9.023300 6308.000000 79.422919
9.041100 6417.000000 80.106180
9.059000 6366.000000 79.787217
9.076900 6270.000000 79.183332
9.094800 6270.000000 79.183332
9.112700 6514.000000 80.709355
9.130500 6285.000000 79.277992
9.148400 6407.000000 80.043738
9.166300 6438.000000 80.237149
9.184200 6271.000000 79.189646
9.202100 6355.000000 79.718254
9.219900 6489.000000 80.554329
9.237800 6589.000000 81.172655
9.255700 6462.000000 80.386566
9.273600 6403.000000 80.018748
9.291500 6484.000000 80.523289
9.309300 6447.000000 80.293213
9.327200 6347.000000 79.668061
9.345100 6305.000000 79.404030
9.363000 6485.000000 80.529498
9.380900 6397.000000 79.981248
9.398800 6425.000000 80.156098
9.416600 6448.000000 80.299440
9.434500 6288.000000 79.296910
9.452400 6443.000000 80.268300
9.470300 6520.000000 80.746517
9.488200 6464.000000 80.399005
9.506000 6391.000000 79.943730
9.523900 6304.000000 79.397733
9.541800 6320.000000 79.498428
9.559700 6341.000000 79.630396
9.577600 6430.000000 80.187281
9.595400 6291.000000 79.315824
9.613300 6462.000000 80.386566
9.631200 6595.000000 81.209605
9.649100 6517.000000 80.727938
9.667000 6362.000000 79.762146
9.684800 6372.000000 79.824808
9.702700 6348.000000 79.674337
9.720600 6344.000000 79.649231
9.738500 6334.000000 79.586431
9.756400 6312.000000 79.448096
9.774300 6328.000000 79.548727
9.792100 6252.000000 79.069590
9.810000 6112.000000 78.179281
9.827900 6406.000000 80.037491
9.845800 6284.000000 79.271685
9.863700 6393.000000 79.956238
9.881500 6201.000000 78.746428
9.899400 6206.000000 78.778170
9.917300 6412.000000 80.074965
9.935200 6215.000000 78.835271
9.953100 6205.000000 78.771822
9.970900 6153.000000 78.441061
9.988800 6162.000000 78.498408
10.006700 6200.000000 78.740079
10.024600 6201.000000 78.746428
10.042500 6187.000000 78.657485
10.060300 6139.000000 78.351771
10.078200 6125.000000 78.262379
10.096100 5949.000000 77.129761
10.114000 6059.000000 77.839579
10.131900 6121.000000 78.236820
10.149700 6046.000000 77.756029
10.167600 6123.000000 78.249601
10.185500 6043.000000 77.736735
10.203400 6149.000000 78.415560
10.221300 6038.000000 77.704569
10.239200 6024.000000 77.614432
10.257000 6148.000000 78.409183
10.274900 5929.000000 77.000000
10.292800 6096.000000 78.076885
10.310700 6130.000000 78.294317
10.328600 5973.000000 77.285186
10.346400 5905.000000 76.843998
10.364300 5995.000000 77.427385
10.382200 6095.000000 78.070481
10.400100 6065.000000 77.878110
10.418000 6151.000000 78.428311
10.435800 6014.000000 77.549984
10.453700 5850.000000 76.485293
10.471600 5985.000000 77.362782
10.489500 5957.000000 77.181604
10.507400 6097.000000 78.083289
10.525200 5958.000000 77.188082
10.543100 5985.000000 77.362782
10.561000 6047.000000 77.762459
10.578900 6072.000000 77.923039
10.596800 6090.000000 78.038452
10.614700 5993.000000 77.414469
10.632500 5997.000000 77.440300
10.650400 5937.000000 77.051931
10.668300 6067.000000 77.890949
10.686200 6139.000000 78.351771
10.704100 6127.000000 78.275156
10.721900 6105.000000 78.134499
10.739800 6103.000000 78.121700
10.757700 6050.000000 77.781746
10.775600 6020.000000 77.588659
10.793500 6013.000000 77.543536
10.811300 5974.000000 77.291655
10.829200 6048.000000 77.768888
10.847100 6074.000000 77.935871
10.865000 6018.000000 77.575769
10.882900 5999.000000 77.453212
10.900700 6013.000000 77.543536
10.918600 6068.000000 77.897368
10.936500 5854.000000 76.511437
10.954400 5891.000000 76.752850
10.972300 5979.000000 77.323994
10.990200 5940.000000 77.071395
11.008000 5940.000000 77.071395
11.025900 5789.000000 76.085478
11.043800 5836.000000 76.393717
11.061700 6004.000000 77.485483
11.079600 5788.000000 76.078906
11.097400 5898.000000 76.798437
11.115300 5796.000000 76.131465
11.133200 5693.000000 75.451971
11.151100 5682.000000 75.379042
11.169000 5711.000000 75.571159
11.186800 5634.000000 75.059976
11.204700 5508.000000 74.215901
11.222600 5547.000000 74.478185
11.240500 5445.000000 73.790243
11.258400 5335.000000 73.041084
11.276200 5394.000000 73.443856
11.294100 5304.000000 72.828566
11.312000 5152.000000 71.777434
11.329900 5238.000000 72.374028
11.347800 5195.000000 72.076348
11.365700 5163.000000 71.854019
11.383500 4983.000000 70.590368
11.401400 4864.000000 69.742383
11.419300 4939.000000 70.278019
11.437200 4900.000000 70.000000
11.455100 4731.000000 68.782265
11.472900 4764.000000 69.021736
11.490800 4660.000000 68.264193
11.508700 4748.000000 68.905733
11.526600 4550.000000 67.453688
11.544500 4535.000000 67.342409
11.562300 4499.000000 67.074585
11.580200 4372.000000 66.121101
11.598100 4364.000000 66.060578
11.616000 4396.000000 66.302338
11.633900 4286.000000 65.467549
11.651700 4311.000000 65.658206
11.669600 4266.000000 65.314623
11.687500 4303.000000 65.597256
11.705400 4234.000000 65.069194
11.723300 4152.000000 64.436015
11.741200 4053.000000 63.663176
11.759000 3993.000000 63.190189
11.776900 3937.000000 62.745518
11.794800 4018.000000 63.387696
11.812700 3885.000000 62.329768
11.830600 3840.000000 61.967734
11.848400 3878.000000 62.273590
11.866300 3859.000000 62.120850
11.884200 3787.000000 61.538606
11.902100 3700.000000 60.827625
11.920000 3685.000000 60.704201
11.937800 3647.000000 60.390397
11.955700 3519.000000 59.321160
11.973600 3503.000000 59.186147
11.991500 3611.000000 60.091597
12.009400 3594.000000 59.949979
12.027200 3504.000000 59.194594
12.045100 3487.000000 59.050826
12.063000 3444.000000 58.685603
12.080900 3351.000000 57.887823
12.098800 3405.000000 58.352378
12.116600 3375.000000 58.094750
12.134500 3381.000000 58.146367
12.152400 3354.000000 57.913729
12.170300 3304.000000 57.480431
12.188200 3267.000000 57.157677
12.206100 3247.000000 56.982453
12.223900 3299.000000 57.436922
12.241800 3315.000000 57.576037
12.259700 3287.000000 57.332364
12.277600 3288.000000 57.341085
12.295500 3305.000000 57.489129
12.313300 3333.000000 57.732140
12.331200 3273.000000 57.210139
12.349100 3238.000000 56.903427
12.367000 3199.000000 56.559703
12.384900 3212.000000 56.674509
12.402700 3184.000000 56.426944
12.420600 3414.000000 58.429445
12.438500 3198.000000 56.550862
12.456400 3416.000000 58.446557
12.474300 3535.000000 59.455866
12.492100 3263.000000 57.122675
12.510000 3310.000000 57.532599
12.527900 3178.000000 56.373753
12.545800 3394.000000 58.258047
12.563700 3160.000000 56.213877
12.581600 3235.000000 56.877060
12.599400 3200.000000 56.568542
12.617300 3219.000000 56.736232
12.635200 3330.000000 57.706152
12.653100 3318.000000 57.602083
12.671000 3234.000000 56.868269
12.688800 3262.000000 57.113921
12.706700 3306.000000 57.497826
12.724600 3287.000000 57.332364
12.742500 3326.000000 57.671483
12.760400 3424.000000 58.514955
12.778200 3321.000000 57.628118
12.796100 3478.000000 58.974571
12.814000 3569.000000 59.741108
12.831900 3868.000000 62.193247
12.849800 5651.000000 75.173133
12.867600 6282.000000 79.259069
12.885500 5796.000000 76.131465
12.903400 4849.000000 69.634761
12.921300 3888.000000 62.353829
12.939200 3649.000000 60.406953
12.957100 3776.000000 61.449166
12.974900 3782.000000 61.497967
12.992800 4648.000000 68.176242
13.010700 11964.000000 109.380071
13.028600 15450.000000 124.298029
13.046500 12224.000000 110.562200
13.064300 8871.000000 94.185986
13.082200 4698.000000 68.541958
13.100100 3628.000000 60.232881
13.118000 3493.000000 59.101607
13.135900 3362.000000 57.982756
13.153700 3386.000000 58.189346
13.171600 3184.000000 56.426944
13.189500 3234.000000 56.868269
13.207400 3320.000000 57.619441
13.225300 3213.000000 56.683331
13.243100 3138.000000 56.017854
13.261000 3146.000000 56.089215
13.278900 3095.000000 55.632724
13.296800 3074.000000 55.443665
13.314700 3052.000000 55.244909
13.332600 3049.000000 55.217751
13.350400 3051.000000 55.235858
13.368300 2985.000000 54.635154
13.386200 2970.000000 54.497706
13.404100 2953.000000 54.341513
13.422000 2977.000000 54.561891
13.439800 2900.000000 53.851648
13.457700 2901.000000 53.860932
13.475600 2875.000000 53.619026
13.493500 2780.000000 52.725705
13.511400 2786.000000 52.782573
13.529200 2691.000000 51.874849
13.547100 2721.000000 52.163205
13.565000 2545.000000 50.447993
13.582900 2554.000000 50.537115
13.600800 2613.000000 51.117512
13.618600 2652.000000 51.497573
13.636500 2494.000000 49.939964
13.654400 2668.000000 51.652686
13.672300 2733.000000 52.278102
13.690200 2720.000000 52.153619
13.708000 2730.000000 52.249402
13.725900 2624.000000 51.224994
13.743800 2453.000000 49.527770
13.761700 2330.000000 48.270074
13.779600 2317.000000 48.135226
13.797500 2255.000000 47.486840
13.815300 2262.000000 47.560488
13.833200 2304.000000 48.000000
13.851100 2211.000000 47.021272
13.869000 2183.000000 46.722586
13.886900 2224.000000 47.159304
13.904700 2224.000000 47.159304
13.922600 2133.000000 46.184413
13.940500 2075.000000 45.552168
13.958400 2162.000000 46.497312
13.976300 2102.000000 45.847574
13.994100 2092.000000 45.738387
14.012000 2052.000000 45.299007
14.029900 2015.000000 44.888751
14.047800 1992.000000 44.631827
14.065700 2045.000000 45.221676
14.083500 2055.000000 45.332108
14.101400 1976.000000 44.452222
14.119300 1918.000000 43.794977
14.137200 1954.000000 44.204072
14.155100 1856.000000 43.081318
14.173000 1952.000000 44.181444
14.190800 1910.000000 43.703547
14.208700 1847.000000 42.976738
14.226600 1829.000000 42.766810
14.244500 1853.000000 43.046487
14.262400 1887.000000 43.439613
14.280200 1874.000000 43.289722
14.298100 1803.000000 42.461747
14.316000 1825.000000 42.720019
14.333900 1826.000000 42.731721
14.351800 1743.000000 41.749251
14.369600 1720.000000 41.472883
14.387500 1760.000000 41.952354
14.405400 1714.000000 41.400483
14.423300 1738.000000 41.689327
14.441200 1696.000000 41.182521
14.459000 1688.000000 41.085277
14.476900 1643.000000 40.533936
14.494800 1669.000000 40.853396
14.512700 1674.000000 40.914545
14.530600 1601.000000 40.012498
14.548500 1696.000000 41.182521
14.566300 1585.000000 39.812058
14.584200 1609.000000 40.112342
14.602100 1649.000000 40.607881
14.620000 1645.000000 40.558600
14.637900 1614.000000 40.174619
14.655700 1635.000000 40.435133
14.673600 1523.000000 39.025633
14.691500 1541.000000 39.255573
14.709400 1484.000000 38.522721
14.727300 1610.000000 40.124805
14.745100 1493.000000 38.639358
14.763000 1435.000000 37.881394
14.780900 1540.000000 39.242834
14.798800 1478.000000 38.444766
14.816700 1526.000000 39.064050
14.834500 1467.000000 38.301436
14.852400 1469.000000 38.327536
14.870300 1527.000000 39.076847
14.888200 1454.000000 38.131352
14.906100 1416.000000 37.629775
14.924000 1416.000000 37.629775
14.941800 1442.000000 37.973675
14.959700 1401.000000 37.429935
14.977600 1409.000000 37.536649
14.995500 1324.000000 36.386811
15.013400 1389.000000 37.269290
15.031200 1387.000000 37.242449
15.049100 1364.000000 36.932371
15.067000 1416.000000 37.629775
15.084900 1422.000000 37.709415
15.102800 1350.000000 36.742346
15.120600 1389.000000 37.269290
15.138500 1363.000000 36.918830
15.156400 1337.000000 36.565011
15.174300 1356.000000 36.823905
15.192200 1314.000000 36.249138
15.210000 1290.000000 35.916570
15.227900 1309.000000 36.180105
15.245800 1232.000000 35.099858
15.263700 1281.000000 35.791060
15.281600 1281.000000 35.791060
15.299400 1206.000000 34.727511
15.317300 1306.000000 36.138622
15.335200 1281.000000 35.791060
15.353100 1282.000000 35.805028
15.371000 1276.000000 35.721142
15.388900 1221.000000 34.942810
15.406700 1188.000000 34.467376
15.424600 1229.000000 35.057096
15.442500 1221.000000 34.942810
15.460400 1223.000000 34.971417
15.478300 1250.000000 35.355339
15.496100 1213.000000 34.828150
15.514000 1152.000000 33.941125
15.531900 1232.000000 35.099858
15.549800 1260.000000 35.496479
15.567700 1149.000000 33.896903
15.585500 1167.000000 34.161382
15.603400 1163.000000 34.102786
15.621300 1231.000000 35.085610
15.639200 1205.000000 34.713110
15.657100 1109.000000 33.301652
15.674900 1114.000000 33.376639
15.692800 1202.000000 34.669872
15.710700 1121.000000 33.481338
15.728600 1134.000000 33.674916
15.746500 1115.000000 33.391616
15.764400 1177.000000 34.307434
15.782200 1123.000000 33.511192
15.800100 1122.000000 33.496268
15.818000 1046.000000 32.341923
15.835900 1074.000000 32.771939
15.853800 1136.000000 33.704599
15.871600 1138.000000 33.734256
15.889500 1095.000000 33.090784
15.907400 1168.000000 34.176015
15.925300 1127.000000 33.570821
15.943200 1128.000000 33.585711
15.961000 1163.000000 34.102786
15.978900 1092.000000 33.045423
15.996800 1149.000000 33.896903
16.014700 1078.000000 32.832910
16.032600 1063.000000 32.603681
16.050400 1075.000000 32.787193
16.068300 1018.000000 31.906112
16.086200 1008.000000 31.749016
16.104100 1072.000000 32.741411
16.122000 1106.000000 33.256578
16.139900 1080.000000 32.863353
16.157700 980.000000 31.304952
16.175600 1074.000000 32.771939
16.193500 985.000000 31.384710
16.211400 1027.000000 32.046841
16.229300 1008.000000 31.749016
16.247100 1019.000000 31.921779
16.265000 1004.000000 31.685959
16.282900 969.000000 31.128765
16.300800 1024.000000 32.000000
16.318700 965.000000 31.064449
16.336500 1096.000000 33.105891
16.354400 1007.000000 31.733263
16.372300 1041.000000 32.264532
16.390200 1010.000000 31.780497
16.408100 998.000000 31.591138
16.425900 1002.000000 31.654384
16.443800 974.000000 31.208973
16.461700 991.000000 31.480152
16.479600 935.000000 30.577770
16.497500 1009.000000 31.764760
16.515400 939.000000 30.643107
16.533200 1076.000000 32.802439
16.551100 992.000000 31.496031
16.569000 1027.000000 32.046841
16.586900 1089.000000 33.000000
16.604800 980.000000 31.304952
16.622600 1013.000000 31.827661
16.640500 986.000000 31.400637
16.658400 978.000000 31.272992
16.676300 1042.000000 32.280025
16.694200 900.000000 30.000000
16.712000 990.000000 31.464265
16.729900 914.000000 30.232433
16.747800 919.000000 30.315013
16.765700 954.000000 30.886890
16.783600 1029.000000 32.078030
16.801400 984.000000 31.368774
16.819300 949.000000 30.805844
16.837200 930.000000 30.495901
16.855100 954.000000 30.886890
16.873000 965.000000 31.064449
16.890800 993.000000 31.511903
16.908700 946.000000 30.757113
16.926600 1013.000000 31.827661
16.944500 1002.000000 31.654384
16.962400 955.000000 30.903074
16.980300 937.000000 30.610456
16.998100 931.000000 30.512293
17.016000 901.000000 30.016662
17.033900 894.000000 29.899833
17.051800 934.000000 30.561414
17.069700 909.000000 30.149627
17.087500 936.000000 30.594117
17.105400 928.000000 30.463092
17.123300 929.000000 30.479501
17.141200 963.000000 31.032241
17.159100 904.000000 30.066593
17.176900 964.000000 31.048349
17.194800 978.000000 31.272992
17.212700 938.000000 30.626786
17.230600 951.000000 30.838288
17.248500 944.000000 30.724583
17.266300 910.000000 30.166206
17.284200 888.000000 29.799329
17.302100 910.000000 30.166206
17.320000 892.000000 29.866369
17.337900 885.000000 29.748950
17.355800 907.000000 30.116441
17.373600 888.000000 29.799329
17.391500 901.000000 30.016662
17.409400 934.000000 30.561414
17.427300 992.000000 31.496031
17.445200 952.000000 30.854497
17.463000 889.000000 29.816103
17.480900 915.000000 30.248967
17.498800 921.000000 30.347982
17.516700 883.000000 29.715316
17.534600 975.000000 31.224990
17.552400 959.000000 30.967725
17.570300 920.000000 30.331502
17.588200 890.000000 29.832868
17.606100 928.000000 30.463092
17.624000 909.000000 30.149627
17.641800 949.000000 30.805844
17.659700 906.000000 30.099834
17.677600 950.000000 30.822070
17.695500 933.000000 30.545049
17.713400 916.000000 30.265492
17.731300 991.000000 31.480152
17.749100 1003.000000 31.670175
17.767000 972.000000 31.176915
17.784900 971.000000 31.160873
17.802800 981.000000 31.320920
17.820700 949.000000 30.805844
17.838500 990.000000 31.464265
17.856400 1003.000000 31.670175
17.874300 936.000000 30.594117
17.892200 957.000000 30.935417
17.910100 949.000000 30.805844
17.927900 923.000000 30.380915
17.945800 912.000000 30.199338
17.963700 936.000000 30.594117
17.981600 922.000000 30.364453
17.999500 867.000000 29.444864
18.017300 974.000000 31.208973
18.035200 927.000000 30.446675
18.053100 947.000000 30.773365
18.071000 990.000000 31.464265
18.088900 960.000000 30.983867
18.106800 920.000000 30.331502
18.124600 950.000000 30.822070
18.142500 967.000000 31.096624
18.160400 946.000000 30.757113
18.178300 992.000000 31.496031
18.196200 921.000000 30.347982
18.214000 841.000000 29.000000
18.231900 890.000000 29.832868
18.249800 858.000000 29.291637
18.267700 951.000000 30.838288
18.285600 911.000000 30.182777
18.303400 950.000000 30.822070
18.321300 939.000000 30.643107
18.339200 926.000000 30.430248
18.357100 917.000000 30.282008
18.375000 945.000000 30.740852
18.392800 1027.000000 32.046841
18.410700 989.000000 31.448370
18.428600 975.000000 31.224990
18.446500 931.000000 30.512293
18.464400 956.000000 30.919250
18.482300 989.000000 31.448370
18.500100 1083.000000 32.908965
18.518000 1381.000000 37.161808
18.535900 1224.000000 34.985711
18.553800 1145.000000 33.837849
18.571700 1185.000000 34.423829
18.589500 977.000000 31.256999
18.607400 947.000000 30.773365
18.625300 993.000000 31.511903
18.643200 1310.000000 36.193922
18.661100 1135.000000 33.689761
18.678900 1024.000000 32.000000
18.696800 1254.000000 35.411862
18.714700 1025.000000 32.015621
18.732600 925.000000 30.413813
18.750500 938.000000 30.626786
18.768300 926.000000 30.430248
18.786200 897.000000 29.949958
18.804100 895.000000 29.916551
18.822000 886.000000 29.765752
18.839900 868.000000 29.461840
18.857700 840.000000 28.982753
18.875600 830.000000 28.809721
18.893500 810.000000 28.460499
18.911400 937.000000 30.610456
18.929300 867.000000 29.444864
18.947200 795.000000 28.195744
18.965000 844.000000 29.051678
18.982900 834.000000 28.879058
19.000800 801.000000 28.301943
19.018700 798.000000 28.248894
19.036600 893.000000 29.883106
19.054400 778.000000 27.892651
19.072300 800.000000 28.284271
19.090200 832.000000 28.844410
19.108100 776.000000 27.856777
19.126000 819.000000 28.618176
19.143800 813.000000 28.513155
19.161700 800.000000 28.284271
19.179600 801.000000 28.301943
19.197500 861.000000 29.342802
19.215400 788.000000 28.071338
19.233200 812.000000 28.495614
19.251100 776.000000 27.856777
19.269000 861.000000 29.342802
19.286900 864.000000 29.393877
19.304800 830.000000 28.809721
19.322700 840.000000 28.982753
19.340500 819.000000 28.618176
19.358400 824.000000 28.705400
19.376300 841.000000 29.000000
19.394200 874.000000 29.563491
19.412100 865.000000 29.410882
19.429900 918.000000 30.298515
19.447800 1040.000000 32.249031
19.465700 1321.000000 36.345564
19.483600 2525.000000 50.249378
19.501500 3093.000000 55.614746
19.519300 1994.000000 44.654227
19.537200 2065.000000 45.442271
19.555100 1935.000000 43.988635
19.573000 1251.000000 35.369478
19.590900 977.000000 31.256999
19.608700 820.000000 28.635642
19.626600 794.000000 28.178006
19.644500 799.000000 28.266588
19.662400 833.000000 28.861739
19.680300 822.000000 28.670542
19.698200 812.000000 28.495614
19.716000 799.000000 28.266588
19.733900 810.000000 28.460499
19.751800 802.000000 28.319605
19.769700 772.000000 27.784888
19.787600 774.000000 27.820855
19.805400 807.000000 28.407745
19.823300 801.000000 28.301943
19.841200 827.000000 28.757608
19.859100 838.000000 28.948230
19.877000 802.000000 28.319605
19.894800 807.000000 28.407745
19.912700 797.000000 28.231188
19.930600 794.000000 28.178006
19.948500 826.000000 28.740216
19.966400 775.000000 27.838822
19.984200 755.000000 27.477263
20.002100 768.000000 27.712813
20.020000 796.000000 28.213472
20.037900 829.000000 28.792360
20.055800 811.000000 28.478062
20.073700 779.000000 27.910571
20.091500 782.000000 27.964263
20.109400 793.000000 28.160256
20.127300 831.000000 28.827071
20.145200 816.000000 28.565714
20.163100 775.000000 27.838822
20.180900 763.000000 27.622455
20.198800 778.000000 27.892651
20.216700 805.000000 28.372522
20.234600 795.000000 28.195744
20.252500 810.000000 28.460499
20.270300 888.000000 29.799329
20.288200 835.000000 28.896367
20.306100 843.000000 29.034462
20.324000 823.000000 28.687977
20.341900 778.000000 27.892651
20.359700 761.000000 27.586228
20.377600 796.000000 28.213472
20.395500 868.000000 29.461840
20.413400 867.000000 29.444864
20.431300 804.000000 28.354894
20.449100 826.000000 28.740216
20.467000 790.000000 28.106939
20.484900 865.000000 29.410882
20.502800 825.000000 28.722813
20.520700 828.000000 28.774989
20.538600 838.000000 28.948230
20.556400 839.000000 28.965497
20.574300 765.000000 27.658633
20.592200 787.000000 28.053520
20.610100 809.000000 28.442925
20.628000 826.000000 28.740216
20.645800 815.000000 28.548205
20.663700 786.000000 28.035692
20.681600 806.000000 28.390139
20.699500 748.000000 27.349589
20.717400 731.000000 27.037012
20.735200 788.000000 28.071338
20.753100 804.000000 28.354894
20.771000 778.000000 27.892651
20.788900 810.000000 28.460499
20.806800 833.000000 28.861739
20.824600 874.000000 29.563491
20.842500 789.000000 28.089144
20.860400 800.000000 28.284271
20.878300 834.000000 28.879058
20.896200 839.000000 28.965497
20.914100 809.000000 28.442925
20.931900 746.000000 27.313001
20.949800 799.000000 28.266588
20.967700 802.000000 28.319605
20.985600 765.000000 27.658633
21.003500 797.000000 28.231188
21.021300 792.000000 28.142495
21.039200 740.000000 27.202941
21.057100 825.000000 28.722813
21.075000 729.000000 27.000000
21.092900 722.000000 26.870058
21.110700 701.000000 26.476405
21.128600 768.000000 27.712813
21.146500 713.000000 26.702060
21.164400 742.000000 27.239677
21.182300 752.000000 27.422618
21.200100 755.000000 27.477263
21.218000 778.000000 27.892651
21.235900 786.000000 28.035692
21.253800 813.000000 28.513155
21.271700 742.000000 27.239677
21.289600 733.000000 27.073973
21.307400 701.000000 26.476405
21.325300 737.000000 27.147744
21.343200 753.000000 27.440845
21.361100 784.000000 28.000000
21.379000 726.000000 26.944387
21.396800 724.000000 26.907248
21.414700 725.000000 26.925824
21.432600 726.000000 26.944387
21.450500 705.000000 26.551836
21.468400 687.000000 26.210685
21.486200 718.000000 26.795522
21.504100 743.000000 27.258026
21.522000 716.000000 26.758176
21.539900 708.000000 26.608269
21.557800 720.000000 26.832816
21.575600 633.000000 25.159491
21.593500 713.000000 26.702060
21.611400 728.000000 26.981475
21.629300 673.000000 25.942244
21.647200 698.000000 26.419690
21.665100 701.000000 26.476405
21.682900 667.000000 25.826343
21.700800 677.000000 26.019224
21.718700 728.000000 26.981475
21.736600 650.000000 25.495098
21.754500 700.000000 26.457513
21.772300 671.000000 25.903668
21.790200 660.000000 25.690465
21.808100 655.000000 25.592968
21.826000 671.000000 25.903668
21.843900 600.000000 24.494897
21.861700 657.000000 25.632011
21.879600 682.000000 26.115130
21.897500 698.000000 26.419690
21.915400 664.000000 25.768197
21.933300 642.000000 25.337719
21.951100 620.000000 24.899799
21.969000 660.000000 25.690465
21.986900 594.000000 24.372115
22.004800 594.000000 24.372115
22.022700 690.000000 26.267851
22.040500 647.000000 25.436195
22.058400 646.000000 25.416530
22.076300 649.000000 25.475478
22.094200 647.000000 25.436195
22.112100 647.000000 25.436195
22.130000 635.000000 25.199206
22.147800 615.000000 24.799194
22.165700 615.000000 24.799194
22.183600 635.000000 25.199206
22.201500 617.000000 24.839485
22.219400 633.000000 25.159491
22.237200 616.000000 24.819347
22.255100 606.000000 24.617067
22.273000 614.000000 24.779023
22.290900 636.000000 25.219040
22.308800 660.000000 25.690465
22.326600 594.000000 24.372115
22.344500 617.000000 24.839485
22.362400 622.000000 24.939928
22.380300 626.000000 25.019992
22.398200 627.000000 25.039968
22.416000 619.000000 24.879711
22.433900 603.000000 24.556058
22.451800 617.000000 24.839485
22.469700 621.000000 24.919872
22.487600 631.000000 25.119713
22.505500 651.000000 25.514702
22.523300 609.000000 24.677925
22.541200 630.000000 25.099801
22.559100 603.000000 24.556058
22.577000 583.000000 24.145393
22.594900 596.000000 24.413111
22.612700 613.000000 24.758837
22.630600 577.000000 24.020824
22.648500 575.000000 23.979158
22.666400 613.000000 24.758837
22.684300 631.000000 25.119713
22.702100 605.000000 24.596748
22.720000 596.000000 24.413111
22.737900 596.000000 24.413111
22.755800 624.000000 24.979992
22.773700 621.000000 24.919872
22.791500 599.000000 24.474477
22.809400 621.000000 24.919872
22.827300 632.000000 25.139610
22.845200 605.000000 24.596748
22.863100 600.000000 24.494897
22.881000 584.000000 24.166092
22.898800 599.000000 24.474477
22.916700 630.000000 25.099801
22.934600 604.000000 24.576411
22.952500 609.000000 24.677925
22.970400 608.000000 24.657656
22.988200 635.000000 25.199206
23.006100 608.000000 24.657656
23.024000 596.000000 24.413111
23.041900 581.000000 24.103942
23.059800 550.000000 23.452079
23.077600 564.000000 23.748684
23.095500 572.000000 23.916521
23.113400 607.000000 24.637370
23.131300 604.000000 24.576411
23.149200 625.000000 25.000000
23.167000 637.000000 25.238859
23.184900 657.000000 25.632011
23.202800 597.000000 24.433583
23.220700 583.000000 24.145393
23.238600 612.000000 24.738634
23.256500 618.000000 24.859606
23.274300 535.000000 23.130067
23.292200 600.000000 24.494897
23.310100 577.000000 24.020824
23.328000 560.000000 23.664319
23.345900 556.000000 23.579652
23.363700 582.000000 24.124676
23.381600 590.000000 24.289916
23.399500 591.000000 24.310492
23.417400 586.000000 24.207437
23.435300 574.000000 23.958297
23.453100 581.000000 24.103942
23.471000 548.000000 23.409400
23.488900 529.000000 23.000000
23.506800 564.000000 23.748684
23.524700 502.000000 22.405357
23.542500 541.000000 23.259407
23.560400 564.000000 23.748684
23.578300 553.000000 23.515952
23.596200 553.000000 23.515952
23.614100 531.000000 23.043437
23.632000 563.000000 23.727621
23.649800 501.000000 22.383029
23.667700 573.000000 23.937418
23.685600 565.000000 23.769729
23.703500 596.000000 24.413111
23.721400 557.000000 23.600847
23.739200 584.000000 24.166092
23.757100 547.000000 23.388031
23.775000 555.000000 23.558438
23.792900 578.000000 24.041631
23.810800 569.000000 23.853721
23.828600 568.000000 23.832751
23.846500 567.000000 23.811762
23.864400 550.000000 23.452079
23.882300 554.000000 23.537205
23.900200 570.000000 23.874673
23.918000 528.000000 22.978251
23.935900 528.000000 22.978251
23.953800 514.000000 22.671568
23.971700 538.000000 23.194827
23.989600 527.000000 22.956481
24.007400 547.000000 23.388031
24.025300 542.000000 23.280893
24.043200 528.000000 22.978251
24.061100 562.000000 23.706539
24.079000 553.000000 23.515952
24.096900 531.000000 23.043437
24.114700 535.000000 23.130067
24.132600 525.000000 22.912878
24.150500 534.000000 23.108440
24.168400 528.000000 22.978251
24.186300 472.000000 21.725561
24.204100 541.000000 23.259407
24.222000 537.000000 23.173260
24.239900 537.000000 23.173260
24.257800 556.000000 23.579652
24.275700 538.000000 23.194827
24.293500 542.000000 23.280893
24.311400 535.000000 23.130067
24.329300 511.000000 22.605309
24.347200 492.000000 22.181073
24.365100 546.000000 23.366643
24.382900 558.000000 23.622024
24.400800 543.000000 23.302360
24.418700 511.000000 22.605309
24.436600 566.000000 23.790755
24.454500 512.000000 22.627417
24.472400 550.000000 23.452079
24.490200 519.000000 22.781571
24.508100 524.000000 22.891046
24.526000 547.000000 23.388031
24.543900 561.000000 23.685439
24.561800 533.000000 23.086793
24.579600 545.000000 23.345235
24.597500 557.000000 23.600847
24.615400 565.000000 23.769729
24.633300 572.000000 23.916521
24.651200 536.000000 23.151674
24.669000 531.000000 23.043437
24.686900 535.000000 23.130067
24.704800 506.000000 22.494444
24.722700 561.000000 23.685439
24.740600 569.000000 23.853721
24.758400 584.000000 24.166092
24.776300 567.000000 23.811762
24.794200 613.000000 24.758837
24.812100 578.000000 24.041631
24.830000 561.000000 23.685439
24.847900 537.000000 23.173260
24.865700 526.000000 22.934690
24.883600 525.000000 22.912878
24.901500 537.000000 23.173260
24.919400 549.000000 23.430749
24.937300 545.000000 23.345235
24.955100 502.000000 22.405357
24.973000 534.000000 23.108440
24.990900 549.000000 23.430749
25.008800 540.000000 23.237900
25.026700 512.000000 22.627417
25.044500 531.000000 23.043437
25.062400 510.000000 22.583180
25.080300 472.000000 21.725561
25.098200 527.000000 22.956481
25.116100 500.000000 22.360680
25.133900 485.000000 22.022716
25.151800 461.000000 21.470911
25.169700 478.000000 21.863211
25.187600 538.000000 23.194827
25.205500 478.000000 21.863211
25.223400 462.000000 21.494185
25.241200 530.000000 23.021729
25.259100 485.000000 22.022716
25.277000 496.000000 22.271057
25.294900 475.000000 21.794495
25.312800 428.000000 20.688161
25.330600 512.000000 22.627417
25.348500 443.000000 21.047565
25.366400 458.000000 21.400935
25.384300 503.000000 22.427661
25.402200 480.000000 21.908902
25.420000 471.000000 21.702534
25.437900 479.000000 21.886069
25.455800 467.000000 21.610183
25.473700 484.000000 22.000000
25.491600 477.000000 21.840330
25.509400 510.000000 22.583180
25.527300 502.000000 22.405357
25.545200 481.000000 21.931712
25.563100 591.000000 24.310492
25.581000 563.000000 23.727621
25.598800 491.000000 22.158520
25.616700 525.000000 22.912878
25.634600 489.000000 22.113344
25.652500 478.000000 21.863211
25.670400 418.000000 20.445048
25.688300 483.000000 21.977261
25.706100 440.000000 20.976177
25.724000 486.000000 22.045408
25.741900 479.000000 21.886069
25.759800 454.000000 21.307276
25.777700 461.000000 21.470911
25.795500 479.000000 21.886069
25.813400 459.000000 21.424285
25.831300 496.000000 22.271057
25.849200 477.000000 21.840330
25.867100 472.000000 21.725561
25.884900 491.000000 22.158520
25.902800 461.000000 21.470911
25.920700 463.000000 21.517435
25.938600 460.000000 21.447611
25.956500 457.000000 21.377558
25.974300 480.000000 21.908902
25.992200 449.000000 21.189620
26.010100 482.000000 21.954498
26.028000 483.000000 21.977261
26.045900 500.000000 22.360680
26.063800 493.000000 22.203603
26.081600 450.000000 21.213203
26.099500 474.000000 21.771541
26.117400 473.000000 21.748563
26.135300 460.000000 21.447611
26.153200 448.000000 21.166010
26.171000 428.000000 20.688161
26.188900 417.000000 20.420578
26.206800 445.000000 21.095023
26.224700 435.000000 20.856654
26.242600 499.000000 22.338308
26.260400 439.000000 20.952327
26.278300 417.000000 20.420578
26.296200 467.000000 21.610183
26.314100 410.000000 20.248457
26.332000 508.000000 22.538855
26.349800 476.000000 21.817424
26.367700 485.000000 22.022716
26.385600 449.000000 21.189620
26.403500 469.000000 21.656408
26.421400 490.000000 22.135944
26.439300 498.000000 22.315914
26.457100 481.000000 21.931712
26.475000 434.000000 20.832667
26.492900 465.000000 21.563859
26.510800 467.000000 21.610183
26.528700 605.000000 24.596748
26.546500 683.000000 26.134269
26.564400 552.000000 23.494680
26.582300 524.000000 22.891046
26.600200 541.000000 23.259407
26.618100 618.000000 24.859606
26.635900 565.000000 23.769729
26.653800 596.000000 24.413111
26.671700 582.000000 24.124676
26.689600 557.000000 23.600847
26.707500 545.000000 23.345235
26.725300 712.000000 26.683328
26.743200 1575.000000 39.686270
26.761100 3837.000000 61.943523
26.779000 3507.000000 59.219929
26.796900 1194.000000 34.554305
26.814800 1481.000000 38.483763
26.832600 2435.000000 49.345719
26.850500 2046.000000 45.232732
26.868400 862.000000 29.359837
26.886300 673.000000 25.942244
26.904200 551.000000 23.473389
26.922000 530.000000 23.021729
26.939900 481.000000 21.931712
26.957800 447.000000 21.142375
26.975700 519.000000 22.781571
26.993600 649.000000 25.475478
27.011400 564.000000 23.748684
27.029300 442.000000 21.023796
27.047200 446.000000 21.118712
27.065100 519.000000 22.781571
27.083000 507.000000 22.516660
27.100800 416.000000 20.396078
27.118700 437.000000 20.904545
27.136600 404.000000 20.099751
27.154500 388.000000 19.697716
27.172400 454.000000 21.307276
27.190200 380.000000 19.493589
27.208100 423.000000 20.566964
27.226000 421.000000 20.518285
27.243900 386.000000 19.646883
27.261800 416.000000 20.396078
27.279700 426.000000 20.639767
27.297500 391.000000 19.773720
27.315400 417.000000 20.420578
27.333300 376.000000 19.390719
27.351200 384.000000 19.595918
27.369100 395.000000 19.874607
27.386900 412.000000 20.297783
27.404800 382.000000 19.544820
27.422700 392.000000 19.798990
27.440600 393.000000 19.824228
27.458500 422.000000 20.542639
27.476300 355.000000 18.841444
27.494200 370.000000 19.235384
27.512100 402.000000 20.049938
27.530000 392.000000 19.798990
27.547900 365.000000 19.104973
27.565700 421.000000 20.518285
27.583600 421.000000 20.518285
27.601500 379.000000 19.467922
27.619400 406.000000 20.149442
27.637300 421.000000 20.518285
27.655200 374.000000 19.339080
27.673000 403.000000 20.074860
27.690900 410.000000 20.248457
27.708800 371.000000 19.261360
27.726700 391.000000 19.773720
27.744600 393.000000 19.824228
27.762400 358.000000 18.920888
27.780300 399.000000 19.974984
27.798200 394.000000 19.849433
27.816100 345.000000 18.574176
27.834000 350.000000 18.708287
27.851800 377.000000 19.416488
27.869700 352.000000 18.761663
27.887600 357.000000 18.894444
27.905500 362.000000 19.026298
27.923400 315.000000 17.748239
27.941200 347.000000 18.627936
27.959100 332.000000 18.220867
27.977000 359.000000 18.947295
27.994900 360.000000 18.973666
28.012800 374.000000 19.339080
28.030700 355.000000 18.841444
28.048500 389.000000 19.723083
28.066400 358.000000 18.920888
28.084300 346.000000 18.601075
28.102200 365.000000 19.104973
28.120100 355.000000 18.841444
28.137900 342.000000 18.493242
28.155800 377.000000 19.416488
28.173700 349.000000 18.681542
28.191600 398.000000 19.949937
28.209500 349.000000 18.681542
28.227300 371.000000 19.261360
28.245200 381.000000 19.519221
28.263100 332.000000 18.220867
28.281000 357.000000 18.894444
28.298900 308.000000 17.549929
28.316700 373.000000 19.313208
28.334600 320.000000 17.888544
28.352500 365.000000 19.104973
28.370400 322.000000 17.944358
28.388300 359.000000 18.947295
28.406200 378.000000 19.442222
28.424000 323.000000 17.972201
28.441900 353.000000 18.788294
28.459800 351.000000 18.734994
28.477700 339.000000 18.411953
28.495600 364.000000 19.078784
28.513400 328.000000 18.110770
28.531300 318.000000 17.832555
28.549200 370.000000 19.235384
28.567100 362.000000 19.026298
28.585000 317.000000 17.804494
28.602800 326.000000 18.055470
28.620700 343.000000 18.520259
28.638600 316.000000 17.776389
28.656500 315.000000 17.748239
28.674400 329.000000 18.138357
28.692200 330.000000 18.165902
28.710100 368.000000 19.183326
28.728000 317.000000 17.804494
28.745900 336.000000 18.330303
28.763800 374.000000 19.339080
28.781600 356.000000 18.867962
28.799500 369.000000 19.209373
28.817400 357.000000 18.894444
28.835300 363.000000 19.052559
28.853200 352.000000 18.761663
28.871100 353.000000 18.788294
28.888900 355.000000 18.841444
28.906800 335.000000 18.303005
28.924700 337.000000 18.357560
28.942600 379.000000 19.467922
28.960500 330.000000 18.165902
28.978300 344.000000 18.547237
28.996200 316.000000 17.776389
29.014100 345.000000 18.574176
29.032000 306.000000 17.492856
29.049900 314.000000 17.720045
29.067700 311.000000 17.635192
29.085600 327.000000 18.083141
29.103500 319.000000 17.860571
29.121400 307.000000 17.521415
29.139300 356.000000 18.867962
29.157100 325.000000 18.027756
29.175000 341.000000 18.466185
29.192900 340.000000 18.439089
29.210800 284.000000 16.852300
29.228700 309.000000 17.578396
29.246600 329.000000 18.138357
29.264400 314.000000 17.720045
29.282300 307.000000 17.521415
29.300200 291.000000 17.058722
29.318100 353.000000 18.788294
29.336000 299.000000 17.291616
29.353800 320.000000 17.888544
29.371700 317.000000 17.804494
29.389600 316.000000 17.776389
29.407500 366.000000 19.131126
29.425400 371.000000 19.261360
29.443200 344.000000 18.547237
29.461100 335.000000 18.303005
29.479000 337.000000 18.357560
29.496900 342.000000 18.493242
29.514800 339.000000 18.411953
29.532600 327.000000 18.083141
29.550500 321.000000 17.916473
29.568400 285.000000 16.881943
29.586300 307.000000 17.521415
29.604200 338.000000 18.384776
29.622100 322.000000 17.944358
29.639900 305.000000 17.464249
29.657800 324.000000 18.000000
29.675700 293.000000 17.117243
29.693600 273.000000 16.522712
29.711500 308.000000 17.549929
29.729300 285.000000 16.881943
29.747200 325.000000 18.027756
29.765100 296.000000 17.204651
29.783000 303.000000 17.406895
29.800900 244.000000 15.620499
29.818700 282.000000 16.792856
29.836600 300.000000 17.320508
29.854500 284.000000 16.852300
29.872400 298.000000 17.262677
29.890300 298.000000 17.262677
29.908100 276.000000 16.613248
29.926000 325.000000 18.027756
29.943900 426.000000 20.639767
29.961800 419.000000 20.469489
29.979700 282.000000 16.792856
29.997600 299.000000 17.291616
