# Two-Theta Intensity Error
5.000100 3473.000000 58.932164
5.017900 3493.000000 59.101607
5.035800 3447.000000 58.711157
5.053700 3448.000000 58.719673
5.071600 3476.000000 58.957612
5.089500 3426.000000 58.532043
5.107300 3419.000000 58.472216
5.125200 3554.000000 59.615434
5.143100 3390.000000 58.223707
5.161000 3508.000000 59.228372
5.178900 3441.000000 58.660038
5.196700 3443.000000 58.677082
5.214600 3469.000000 58.898217
5.232500 3389.000000 58.215118
5.250400 3461.000000 58.830264
5.268300 3450.000000 58.736701
5.286100 3403.000000 58.335238
5.304000 3443.000000 58.677082
5.321900 3477.000000 58.966092
5.339800 3516.000000 59.295868
5.357700 3451.000000 58.745213
5.375500 3370.000000 58.051701
5.393400 3443.000000 58.677082
5.411300 3519.000000 59.321160
5.429200 3421.000000 58.489315
5.447100 3487.000000 59.050826
5.465000 3348.000000 57.861905
5.482800 3397.000000 58.283788
5.500700 3457.000000 58.796258
5.518600 3525.000000 59.371710
5.536500 3449.000000 58.728187
5.554400 3491.000000 59.084685
5.572200 3393.000000 58.249464
5.590100 3539.000000 59.489495
5.608000 3494.000000 59.110067
5.625900 3466.000000 58.872744
5.643800 3530.000000 59.413803
5.661600 3469.000000 58.898217
5.679500 3478.000000 58.974571
5.697400 3603.000000 60.024995
5.715300 3514.000000 59.279001
5.733200 3429.000000 58.557664
5.751000 3553.000000 59.607047
5.768900 3535.000000 59.455866
5.786800 3550.000000 59.581876
5.804700 3461.000000 58.830264
5.822600 3517.000000 59.304300
5.840500 3631.000000 60.257780
5.858300 3536.000000 59.464275
5.876200 3554.000000 59.615434
5.894100 3604.000000 60.033324
5.912000 3475.000000 58.949131
5.929900 3613.000000 60.108236
5.947700 3515.000000 59.287435
5.965600 3552.000000 59.598658
5.983500 3615.000000 60.124870
6.001400 3627.000000 60.224580
6.019300 3772.000000 61.416610
6.037100 3611.000000 60.091597
6.055000 3604.000000 60.033324
6.072900 3610.000000 60.083276
6.090800 3750.000000 61.237244
6.108700 3743.000000 61.180062
6.126500 3777.000000 61.457302
6.144400 3799.000000 61.636028
6.162300 3842.000000 61.983869
6.180200 3884.000000 62.321746
6.198100 3744.000000 61.188234
6.216000 3868.000000 62.193247
6.233800 3829.000000 61.878914
6.251700 3865.000000 62.169124
6.269600 3997.000000 63.221832
6.287500 4002.000000 63.261363
6.305400 3931.000000 62.697687
6.323200 4109.000000 64.101482
6.341100 4110.000000 64.109282
6.359000 4184.000000 64.683847
6.376900 4173.000000 64.598762
6.394800 4085.000000 63.914005
6.412600 4245.000000 65.153665
6.430500 4141.000000 64.350602
6.448400 4291.000000 65.505725
6.466300 4312.000000 65.665821
6.484200 4206.000000 64.853681
6.502000 4362.000000 66.045439
6.519900 4476.000000 66.902915
6.537800 4474.000000 66.887966
6.555700 4563.000000 67.549981
6.573600 4481.000000 66.940272
6.591500 4772.000000 69.079664
6.609300 4697.000000 68.534663
6.627200 4573.000000 67.623960
6.645100 4850.000000 69.641941
6.663000 4905.000000 70.035705
6.680900 5055.000000 71.098523
6.698700 5197.000000 72.090221
6.716600 5085.000000 71.309186
6.734500 5132.000000 71.637979
6.752400 5316.000000 72.910905
6.770300 5297.000000 72.780492
6.788100 5423.000000 73.641021
6.806000 5596.000000 74.806417
6.823900 5607.000000 74.879904
6.841800 5670.000000 75.299402
6.859700 5581.000000 74.706091
6.877500 5812.000000 76.236474
6.895400 5993.000000 77.414469
6.913300 5970.000000 77.265775
6.931200 6152.000000 78.434686
6.949100 6267.000000 79.164386
6.966900 6427.000000 80.168572
6.984800 6257.000000 79.101201
7.002700 6350.000000 79.686887
7.020600 6313.000000 79.454389
7.038500 6580.000000 81.117199
7.056400 6602.000000 81.252692
7.074200 6698.000000 81.841310
7.092100 6627.000000 81.406388
7.110000 6910.000000 83.126410
7.127900 6903.000000 83.084295
7.145800 6920.000000 83.186537
7.163600 6892.000000 83.018070
7.181500 6976.000000 83.522452
7.199400 6928.000000 83.234608
7.217300 7001.000000 83.671979
7.235200 6972.000000 83.498503
7.253000 7165.000000 84.646323
7.270900 7044.000000 83.928541
7.288800 7147.000000 84.539931
7.306700 7052.000000 83.976187
7.324600 7047.000000 83.946411
7.342400 7263.000000 85.223236
7.360300 7214.000000 84.935269
7.378200 7252.000000 85.158675
7.396100 7263.000000 85.223236
7.414000 7221.000000 84.976467
7.431900 7128.000000 84.427484
7.449700 7032.000000 83.857021
7.467600 7171.000000 84.681757
7.485500 7079.000000 84.136793
7.503400 7069.000000 84.077345
7.521300 7118.000000 84.368240
7.539100 7279.000000 85.317056
7.557000 7050.000000 83.964278
7.574900 7107.000000 84.303025
7.592800 6950.000000 83.366660
7.610700 7024.000000 83.809307
7.628500 6883.000000 82.963848
7.646400 6936.000000 83.282651
7.664300 6878.000000 82.933708
7.682200 6896.000000 83.042158
7.700100 6787.000000 82.383251
7.717900 6627.000000 81.406388
7.735800 6731.000000 82.042672
7.753700 6769.000000 82.273933
7.771600 6638.000000 81.473922
7.789500 6536.000000 80.845532
7.807400 6502.000000 80.634980
7.825200 6621.000000 81.369527
7.843100 6636.000000 81.461647
7.861000 6628.000000 81.412530
7.878900 6511.000000 80.690768
7.896800 6396.000000 79.974996
7.914600 6395.000000 79.968744
7.932500 6391.000000 79.943730
7.950400 6461.000000 80.380346
7.968300 6324.000000 79.523581
7.986200 6570.000000 81.055537
8.004000 6332.000000 79.573865
8.021900 6272.000000 79.195959
8.039800 6446.000000 80.286985
8.057700 6152.000000 78.434686
8.075600 6403.000000 80.018748
8.093400 6270.000000 79.183332
8.111300 6234.000000 78.955684
8.129200 6274.000000 79.208585
8.147100 6317.000000 79.479557
8.165000 6235.000000 78.962016
8.182900 6302.000000 79.385137
8.200700 6282.000000 79.259069
8.218600 6310.000000 79.435508
8.236500 6239.000000 78.987341
8.254400 6088.000000 78.025637
8.272300 6130.000000 78.294317
8.290100 6179.000000 78.606615
8.308000 6083.000000 77.993589
8.325900 6120.000000 78.230429
8.343800 6230.000000 78.930349
8.361700 6144.000000 78.383672
8.379500 6207.000000 78.784516
8.397400 6182.000000 78.625696
8.415300 6276.000000 79.221209
8.433200 6191.000000 78.682908
8.451100 6187.000000 78.657485
8.468900 6287.000000 79.290605
8.486800 6284.000000 79.271685
8.504700 6271.000000 79.189646
8.522600 6352.000000 79.699435
8.540500 6271.000000 79.189646
8.558300 6073.000000 77.929455
8.576200 6138.000000 78.345389
8.594100 6103.000000 78.121700
8.612000 6325.000000 79.529869
8.629900 6198.000000 78.727378
8.647800 6328.000000 79.548727
8.665600 6264.000000 79.145436
8.683500 6278.000000 79.233831
8.701400 6346.000000 79.661785
8.719300 6127.000000 78.275156
8.737200 6342.000000 79.636675
8.755000 6348.000000 79.674337
8.772900 6331.000000 79.567581
8.790800 6154.000000 78.447435
8.808700 6236.000000 78.968348
8.826600 6327.000000 79.542442
8.844400 6220.000000 78.866977
8.862300 6330.000000 79.561297
8.880200 6330.000000 79.561297
8.898100 6295.000000 79.341036
8.916000 6208.000000 78.790862
8.933800 6284.000000 79.271685
8.951700 6379.000000 79.868642
8.969600 6332.000000 79.573865
8.987500 6348.000000 79.674337
9.005400 6507.000000 80.665978
9.023300 6418.000000 80.112421
9.041100 6361.000000 79.755878
9.059000 6461.000000 80.380346
9.076900 6470.000000 80.436310
9.094800 6337.000000 79.605276
9.112700 6400.000000 80.000000
9.130500 6521.000000 80.752709
9.148400 6660.000000 81.608823
9.166300 6463.000000 80.392786
9.184200 6403.000000 80.018748
9.202100 6408.000000 80.049984
9.219900 6499.000000 80.616376
9.237800 6493.000000 80.579154
9.255700 6390.000000 79.937476
9.273600 6398.000000 79.987499
9.291500 6413.000000 80.081209
9.309300 6632.000000 81.437092
9.327200 6515.000000 80.715550
9.345100 6469.000000 80.430094
9.363000 6475.000000 80.467385
9.380900 6427.000000 80.168572
9.398800 6456.000000 80.349238
9.416600 6381.000000 79.881162
9.434500 6351.000000 79.693162
9.452400 6269.000000 79.177017
9.470300 6559.000000 80.987653
9.488200 6546.000000 80.907354
9.506000 6352.000000 79.699435
9.523900 6478.000000 80.486024
9.541800 6442.000000 80.262071
9.559700 6494.000000 80.585358
9.577600 6444.000000 80.274529
9.595400 6511.000000 80.690768
9.613300 6444.000000 80.274529
9.631200 6286.000000 79.284299
9.649100 6391.000000 79.943730
9.667000 6412.000000 80.074965
9.684800 6445.000000 80.280757
9.702700 6393.000000 79.956238
9.720600 6395.000000 79.968744
9.738500 6304.000000 79.397733
9.756400 6324.000000 79.523581
9.774300 6563.000000 81.012345
9.792100 6415.000000 80.093695
9.810000 6278.000000 79.233831
9.827900 6510.000000 80.684571
9.845800 6392.000000 79.949984
9.863700 6277.000000 79.227520
9.881500 6200.000000 78.740079
9.899400 6332.000000 79.573865
9.917300 6426.000000 80.162335
9.935200 6347.000000 79.668061
9.953100 6271.000000 79.189646
9.970900 6250.000000 79.056942
9.988800 6234.000000 78.955684
10.006700 6269.000000 79.177017
10.024600 6283.000000 79.265377
10.042500 6257.000000 79.101201
10.060300 6246.000000 79.031639
10.078200 6206.000000 78.778170
10.096100 6193.000000 78.695616
10.114000 6148.000000 78.409183
10.131900 6227.000000 78.911343
10.149700 6137.000000 78.339007
10.167600 6095.000000 78.070481
10.185500 6122.000000 78.243211
10.203400 6194.000000 78.701969
10.221300 6087.000000 78.019228
10.239200 6135.000000 78.326241
10.257000 5980.000000 77.330460
10.274900 6087.000000 78.019228
10.292800 6142.000000 78.370913
10.310700 6096.000000 78.076885
10.328600 6067.000000 77.890949
10.346400 6089.000000 78.032045
10.364300 6047.000000 77.762459
10.382200 6089.000000 78.032045
10.400100 6073.000000 77.929455
10.418000 5970.000000 77.265775
10.435800 5886.000000 76.720271
10.453700 5930.000000 77.006493
10.471600 6101.000000 78.108898
10.489500 6102.000000 78.115299
10.507400 6003.000000 77.479029
10.525200 6038.000000 77.704569
10.543100 5902.000000 76.824475
10.561000 6078.000000 77.961529
10.578900 5986.000000 77.369245
10.596800 6083.000000 77.993589
10.614700 6068.000000 77.897368
10.632500 6154.000000 78.447435
10.650400 6073.000000 77.929455
10.668300 6010.000000 77.524190
10.686200 6118.000000 78.217645
10.704100 6050.000000 77.781746
10.721900 6192.000000 78.689262
10.739800 6290.000000 79.309520
10.757700 6137.000000 78.339007
10.775600 6063.000000 77.865268
10.793500 6095.000000 78.070481
10.811300 6112.000000 78.179281
10.829200 6122.000000 78.243211
10.847100 6094.000000 78.064076
10.865000 6146.000000 78.396428
10.882900 6015.000000 77.556431
10.900700 5915.000000 76.909037
10.918600 5961.000000 77.207513
10.936500 5973.000000 77.285186
10.954400 5951.000000 77.142725
10.972300 5943.000000 77.090855
10.990200 5863.000000 76.570229
11.008000 6009.000000 77.517740
11.025900 5842.000000 76.432977
11.043800 5908.000000 76.863515
11.061700 5893.000000 76.765878
11.079600 5782.000000 76.039463
11.097400 5812.000000 76.236474
11.115300 5788.000000 76.078906
11.133200 5753.000000 75.848533
11.151100 5588.000000 74.752926
11.169000 5573.000000 74.652528
11.186800 5749.000000 75.822160
11.204700 5546.000000 74.471471
11.222600 5415.000000 73.586684
11.240500 5487.000000 74.074287
11.258400 5283.000000 72.684249
11.276200 5282.000000 72.677369
11.294100 5345.000000 73.109507
11.312000 5333.000000 73.027392
11.329900 5173.000000 71.923571
11.347800 5086.000000 71.316197
11.365700 5157.000000 71.812255
11.383500 4972.000000 70.512410
11.401400 4981.000000 70.576200
11.419300 4883.000000 69.878466
11.437200 4742.000000 68.862181
11.455100 4830.000000 69.498201
11.472900 4773.000000 69.086902
11.490800 4801.000000 69.289249
11.508700 4758.000000 68.978257
11.526600 4584.000000 67.705244
11.544500 4584.000000 67.705244
11.562300 4636.000000 68.088178
11.580200 4429.000000 66.550733
11.598100 4297.000000 65.551506
11.616000 4336.000000 65.848311
11.633900 4167.000000 64.552304
11.651700 4320.000000 65.726707
11.669600 4302.000000 65.589633
11.687500 4196.000000 64.776539
11.705400 4146.000000 64.389440
11.723300 4153.000000 64.443774
11.741200 3970.000000 63.007936
11.759000 3914.000000 62.561969
11.776900 4121.000000 64.195015
11.794800 3956.000000 62.896741
11.812700 3985.000000 63.126856
11.830600 3763.000000 61.343296
11.848400 3850.000000 62.048368
11.866300 3779.000000 61.473572
11.884200 3689.000000 60.737139
11.902100 3619.000000 60.158125
11.920000 3700.000000 60.827625
11.937800 3675.000000 60.621778
11.955700 3638.000000 60.315835
11.973600 3557.000000 59.640590
11.991500 3513.000000 59.270566
12.009400 3493.000000 59.101607
12.027200 3583.000000 59.858166
12.045100 3374.000000 58.086143
12.063000 3484.000000 59.025418
12.080900 3493.000000 59.101607
12.098800 3326.000000 57.671483
12.116600 3407.000000 58.369513
12.134500 3332.000000 57.723479
12.152400 3332.000000 57.723479
12.170300 3301.000000 57.454330
12.188200 3292.000000 57.375953
12.206100 3248.000000 56.991227
12.223900 3404.000000 58.343809
12.241800 3264.000000 57.131427
12.259700 3311.000000 57.541290
12.277600 3306.000000 57.497826
12.295500 3194.000000 56.515485
12.313300 3314.000000 57.567352
12.331200 3160.000000 56.213877
12.349100 3183.000000 56.418082
12.367000 3206.000000 56.621551
12.384900 3185.000000 56.435804
12.402700 3229.000000 56.824291
12.420600 3184.000000 56.426944
12.438500 3145.000000 56.080300
12.456400 3158.000000 56.196085
12.474300 3296.000000 57.410800
12.492100 3096.000000 55.641711
12.510000 3218.000000 56.727418
12.527900 3150.000000 56.124861
12.545800 3207.000000 56.630381
12.563700 3220.000000 56.745044
12.581600 3239.000000 56.912213
12.599400 3171.000000 56.311633
12.617300 3209.000000 56.648036
12.635200 3289.000000 57.349804
12.653100 3167.000000 56.276105
12.671000 3228.000000 56.815491
12.688800 3147.000000 56.098128
12.706700 3290.000000 57.358522
12.724600 3226.000000 56.797887
12.742500 3325.000000 57.662813
12.760400 3255.000000 57.052607
12.778200 3334.000000 57.740800
12.796100 3241.000000 56.929781
12.814000 3212.000000 56.674509
12.831900 3081.000000 55.506756
12.849800 3280.000000 57.271284
12.867600 3307.000000 57.506521
12.885500 3291.000000 57.367238
12.903400 3332.000000 57.723479
12.921300 3400.000000 58.309519
12.939200 3325.000000 57.662813
12.957100 3344.000000 57.827329
12.974900 3229.000000 56.824291
12.992800 3274.000000 57.218878
13.010700 3245.000000 56.964901
13.028600 3325.000000 57.662813
13.046500 3194.000000 56.515485
13.064300 3265.000000 57.140179
13.082200 3287.000000 57.332364
13.100100 3208.000000 56.639209
13.118000 3166.000000 56.267220
13.135900 3209.000000 56.648036
13.153700 3217.000000 56.718604
13.171600 3073.000000 55.434646
13.189500 3284.000000 57.306195
13.207400 3201.000000 56.577381
13.225300 3166.000000 56.267220
13.243100 3219.000000 56.736232
13.261000 3062.000000 55.335341
13.278900 3126.000000 55.910643
13.296800 3059.000000 55.308227
13.314700 3109.000000 55.758407
13.332600 3111.000000 55.776339
13.350400 2990.000000 54.680892
13.368300 3038.000000 55.118055
13.386200 2980.000000 54.589376
13.404100 2982.000000 54.607692
13.422000 2916.000000 54.000000
13.439800 2725.000000 52.201533
13.457700 2838.000000 53.272882
13.475600 2767.000000 52.602281
13.493500 2849.000000 53.376025
13.511400 2754.000000 52.478567
13.529200 2733.000000 52.278102
13.547100 2756.000000 52.497619
13.565000 2649.000000 51.468437
13.582900 2667.000000 51.643005
13.600800 2702.000000 51.980766
13.618600 2689.000000 51.855569
13.636500 2557.000000 50.566788
13.654400 2558.000000 50.576674
13.672300 2485.000000 49.849774
13.690200 2628.000000 51.264022
13.708000 2434.000000 49.335586
13.725900 2449.000000 49.487372
13.743800 2359.000000 48.569538
13.761700 2335.000000 48.321838
13.779600 2364.000000 48.620983
13.797500 2281.000000 47.759816
13.815300 2335.000000 48.321838
13.833200 2233.000000 47.254629
13.851100 2299.000000 47.947888
13.869000 2245.000000 47.381431
13.886900 2163.000000 46.508064
13.904700 2242.000000 47.349762
13.922600 2125.000000 46.097722
13.940500 2160.000000 46.475800
13.958400 2155.000000 46.421978
13.976300 2061.000000 45.398238
13.994100 2086.000000 45.672749
14.012000 2075.000000 45.552168
14.029900 1996.000000 44.676616
14.047800 2040.000000 45.166359
14.065700 1929.000000 43.920383
14.083500 1977.000000 44.463468
14.101400 2050.000000 45.276926
14.119300 2003.000000 44.754888
14.137200 1918.000000 43.794977
14.155100 1886.000000 43.428102
14.173000 2003.000000 44.754888
14.190800 1939.000000 44.034078
14.208700 1866.000000 43.197222
14.226600 1968.000000 44.362146
14.244500 1909.000000 43.692105
14.262400 1996.000000 44.676616
14.280200 1975.000000 44.440972
14.298100 1931.000000 43.943145
14.316000 1827.000000 42.743421
14.333900 1872.000000 43.266615
14.351800 1755.000000 41.892720
14.369600 1806.000000 42.497059
14.387500 1832.000000 42.801869
14.405400 1784.000000 42.237424
14.423300 1756.000000 41.904654
14.441200 1734.000000 41.641326
14.459000 1699.000000 41.218928
14.476900 1688.000000 41.085277
14.494800 1692.000000 41.133928
14.512700 1640.000000 40.496913
14.530600 1691.000000 41.121770
14.548500 1677.000000 40.951190
14.566300 1676.000000 40.938979
14.584200 1649.000000 40.607881
14.602100 1618.000000 40.224371
14.620000 1611.000000 40.137264
14.637900 1579.000000 39.736633
14.655700 1684.000000 41.036569
14.673600 1553.000000 39.408121
14.691500 1604.000000 40.049969
14.709400 1476.000000 38.418745
14.727300 1610.000000 40.124805
14.745100 1480.000000 38.470768
14.763000 1504.000000 38.781439
14.780900 1634.000000 40.422766
14.798800 1552.000000 39.395431
14.816700 1465.000000 38.275318
14.834500 1492.000000 38.626416
14.852400 1562.000000 39.522146
14.870300 1450.000000 38.078866
14.888200 1490.000000 38.600518
14.906100 1459.000000 38.196859
14.924000 1404.000000 37.469988
14.941800 1433.000000 37.854986
14.959700 1427.000000 37.775654
14.977600 1430.000000 37.815341
14.995500 1447.000000 38.039453
15.013400 1492.000000 38.626416
15.031200 1530.000000 39.115214
15.049100 1555.000000 39.433488
15.067000 1485.000000 38.535698
15.084900 1487.000000 38.561639
15.102800 1462.000000 38.236109
15.120600 1429.000000 37.802116
15.138500 1438.000000 37.920970
15.156400 1421.000000 37.696154
15.174300 1459.000000 38.196859
15.192200 1353.000000 36.783148
15.210000 1378.000000 37.121422
15.227900 1396.000000 37.363083
15.245800 1374.000000 37.067506
15.263700 1267.000000 35.594943
15.281600 1312.000000 36.221541
15.299400 1263.000000 35.538711
15.317300 1285.000000 35.846897
15.335200 1329.000000 36.455452
15.353100 1352.000000 36.769553
15.371000 1341.000000 36.619667
15.388900 1348.000000 36.715120
15.406700 1278.000000 35.749126
15.424600 1285.000000 35.846897
15.442500 1297.000000 36.013886
15.460400 1215.000000 34.856850
15.478300 1226.000000 35.014283
15.496100 1222.000000 34.957117
15.514000 1251.000000 35.369478
15.531900 1208.000000 34.756294
15.549800 1231.000000 35.085610
15.567700 1242.000000 35.242020
15.585500 1264.000000 35.552778
15.603400 1235.000000 35.142567
15.621300 1189.000000 34.481879
15.639200 1147.000000 33.867388
15.657100 1184.000000 34.409301
15.674900 1183.000000 34.394767
15.692800 1143.000000 33.808283
15.710700 1140.000000 33.763886
15.728600 1215.000000 34.856850
15.746500 1202.000000 34.669872
15.764400 1134.000000 33.674916
15.782200 1187.000000 34.452866
15.800100 1186.000000 34.438351
15.818000 1128.000000 33.585711
15.835900 1115.000000 33.391616
15.853800 1092.000000 33.045423
15.871600 1121.000000 33.481338
15.889500 1131.000000 33.630343
15.907400 1066.000000 32.649655
15.925300 1147.000000 33.867388
15.943200 1046.000000 32.341923
15.961000 1022.000000 31.968735
15.978900 1085.000000 32.939338
15.996800 1116.000000 33.406586
16.014700 1115.000000 33.391616
16.032600 1036.000000 32.186954
16.050400 1095.000000 33.090784
16.068300 1087.000000 32.969683
16.086200 1070.000000 32.710854
16.104100 1032.000000 32.124757
16.122000 1078.000000 32.832910
16.139900 1057.000000 32.511536
16.157700 1040.000000 32.249031
16.175600 1041.000000 32.264532
16.193500 1060.000000 32.557641
16.211400 1093.000000 33.060551
16.229300 1090.000000 33.015148
16.247100 1094.000000 33.075671
16.265000 1050.000000 32.403703
16.282900 1030.000000 32.093613
16.300800 1064.000000 32.619013
16.318700 1022.000000 31.968735
16.336500 1008.000000 31.749016
16.354400 1085.000000 32.939338
16.372300 1008.000000 31.749016
16.390200 978.000000 31.272992
16.408100 1015.000000 31.859065
16.425900 1034.000000 32.155870
16.443800 959.000000 30.967725
16.461700 991.000000 31.480152
16.479600 1035.000000 32.171416
16.497500 1038.000000 32.218007
16.515400 992.000000 31.496031
16.533200 1017.000000 31.890437
16.551100 1026.000000 32.031235
16.569000 998.000000 31.591138
16.586900 987.000000 31.416556
16.604800 1000.000000 31.622777
16.622600 985.000000 31.384710
16.640500 958.000000 30.951575
16.658400 978.000000 31.272992
16.676300 1016.000000 31.874755
16.694200 968.000000 31.112698
16.712000 1004.000000 31.685959
16.729900 994.000000 31.527766
16.747800 1015.000000 31.859065
16.765700 1006.000000 31.717503
16.783600 989.000000 31.448370
16.801400 982.000000 31.336879
16.819300 949.000000 30.805844
16.837200 986.000000 31.400637
16.855100 944.000000 30.724583
16.873000 931.000000 30.512293
16.890800 919.000000 30.315013
16.908700 984.000000 31.368774
16.926600 955.000000 30.903074
16.944500 1003.000000 31.670175
16.962400 926.000000 30.430248
16.980300 1010.000000 31.780497
16.998100 1021.000000 31.953091
17.016000 987.000000 31.416556
17.033900 970.000000 31.144823
17.051800 992.000000 31.496031
17.069700 950.000000 30.822070
17.087500 1003.000000 31.670175
17.105400 993.000000 31.511903
17.123300 993.000000 31.511903
17.141200 928.000000 30.463092
17.159100 973.000000 31.192948
17.176900 954.000000 30.886890
17.194800 987.000000 31.416556
17.212700 922.000000 30.364453
17.230600 964.000000 31.048349
17.248500 943.000000 30.708305
17.266300 976.000000 31.240999
17.284200 949.000000 30.805844
17.302100 893.000000 29.883106
17.320000 936.000000 30.594117
17.337900 984.000000 31.368774
17.355800 975.000000 31.224990
17.373600 994.000000 31.527766
17.391500 985.000000 31.384710
17.409400 991.000000 31.480152
17.427300 1067.000000 32.664966
17.445200 1145.000000 33.837849
17.463000 1349.000000 36.728735
17.480900 1345.000000 36.674242
17.498800 1522.000000 39.012818
17.516700 1328.000000 36.441734
17.534600 1237.000000 35.171011
17.552400 1114.000000 33.376639
17.570300 1020.000000 31.937439
17.588200 1001.000000 31.638584
17.606100 1080.000000 32.863353
17.624000 973.000000 31.192948
17.641800 990.000000 31.464265
17.659700 1010.000000 31.780497
17.677600 1043.000000 32.295511
17.695500 953.000000 30.870698
17.713400 949.000000 30.805844
17.731300 919.000000 30.315013
17.749100 976.000000 31.240999
17.767000 981.000000 31.320920
17.784900 979.000000 31.288976
17.802800 1002.000000 31.654384
17.820700 981.000000 31.320920
17.838500 1041.000000 32.264532
17.856400 1070.000000 32.710854
17.874300 1104.000000 33.226495
17.892200 1263.000000 35.538711
17.910100 1261.000000 35.510562
17.927900 1183.000000 34.394767
17.945800 1139.000000 33.749074
17.963700 1114.000000 33.376639
17.981600 1047.000000 32.357379
17.999500 978.000000 31.272992
18.017300 967.000000 31.096624
18.035200 970.000000 31.144823
18.053100 1034.000000 32.155870
18.071000 938.000000 30.626786
18.088900 1012.000000 31.811947
18.106800 924.000000 30.397368
18.124600 981.000000 31.320920
18.142500 1018.000000 31.906112
18.160400 952.000000 30.854497
18.178300 932.000000 30.528675
18.196200 909.000000 30.149627
18.214000 957.000000 30.935417
18.231900 927.000000 30.446675
18.249800 982.000000 31.336879
18.267700 891.000000 29.849623
18.285600 955.000000 30.903074
18.303400 906.000000 30.099834
18.321300 918.000000 30.298515
18.339200 944.000000 30.724583
18.357100 923.000000 30.380915
18.375000 930.000000 30.495901
18.392800 906.000000 30.099834
18.410700 911.000000 30.182777
18.428600 948.000000 30.789609
18.446500 939.000000 30.643107
18.464400 928.000000 30.463092
18.482300 970.000000 31.144823
18.500100 974.000000 31.208973
18.518000 945.000000 30.740852
18.535900 895.000000 29.916551
18.553800 923.000000 30.380915
18.571700 915.000000 30.248967
18.589500 907.000000 30.116441
18.607400 949.000000 30.805844
18.625300 914.000000 30.232433
18.643200 852.000000 29.189039
18.661100 930.000000 30.495901
18.678900 840.000000 28.982753
18.696800 865.000000 29.410882
18.714700 868.000000 29.461840
18.732600 883.000000 29.715316
18.750500 871.000000 29.512709
18.768300 897.000000 29.949958
18.786200 903.000000 30.049958
18.804100 950.000000 30.822070
18.822000 847.000000 29.103264
18.839900 869.000000 29.478806
18.857700 906.000000 30.099834
18.875600 903.000000 30.049958
18.893500 965.000000 31.064449
18.911400 967.000000 31.096624
18.929300 900.000000 30.000000
18.947200 955.000000 30.903074
18.965000 927.000000 30.446675
18.982900 901.000000 30.016662
19.000800 846.000000 29.086079
19.018700 853.000000 29.206164
19.036600 852.000000 29.189039
19.054400 846.000000 29.086079
19.072300 854.000000 29.223278
19.090200 823.000000 28.687977
19.108100 809.000000 28.442925
19.126000 908.000000 30.133038
19.143800 879.000000 29.647934
19.161700 854.000000 29.223278
19.179600 861.000000 29.342802
19.197500 794.000000 28.178006
19.215400 861.000000 29.342802
19.233200 850.000000 29.154759
19.251100 880.000000 29.664794
19.269000 845.000000 29.068884
19.286900 896.000000 29.933259
19.304800 931.000000 30.512293
19.322700 911.000000 30.182777
19.340500 824.000000 28.705400
19.358400 831.000000 28.827071
19.376300 849.000000 29.137605
19.394200 800.000000 28.284271
19.412100 816.000000 28.565714
19.429900 762.000000 27.604347
19.447800 794.000000 28.178006
19.465700 796.000000 28.213472
19.483600 772.000000 27.784888
19.501500 902.000000 30.033315
19.519300 860.000000 29.325757
19.537200 824.000000 28.705400
19.555100 865.000000 29.410882
19.573000 831.000000 28.827071
19.590900 759.000000 27.549955
19.608700 775.000000 27.838822
19.626600 804.000000 28.354894
19.644500 783.000000 27.982137
19.662400 761.000000 27.586228
19.680300 848.000000 29.120440
19.698200 752.000000 27.422618
19.716000 756.000000 27.495454
19.733900 749.000000 27.367864
19.751800 834.000000 28.879058
19.769700 740.000000 27.202941
19.787600 793.000000 28.160256
19.805400 819.000000 28.618176
19.823300 792.000000 28.142495
19.841200 810.000000 28.460499
19.859100 817.000000 28.583212
19.877000 835.000000 28.896367
19.894800 762.000000 27.604347
19.912700 816.000000 28.565714
19.930600 783.000000 27.982137
19.948500 818.000000 28.600699
19.966400 848.000000 29.120440
19.984200 814.000000 28.530685
20.002100 816.000000 28.565714
20.020000 802.000000 28.319605
20.037900 858.000000 29.291637
20.055800 806.000000 28.390139
20.073700 834.000000 28.879058
20.091500 810.000000 28.460499
20.109400 804.000000 28.354894
20.127300 843.000000 29.034462
20.145200 850.000000 29.154759
20.163100 810.000000 28.460499
20.180900 810.000000 28.460499
20.198800 822.000000 28.670542
20.216700 825.000000 28.722813
20.234600 906.000000 30.099834
20.252500 888.000000 29.799329
20.270300 914.000000 30.232433
20.288200 858.000000 29.291637
20.306100 846.000000 29.086079
20.324000 852.000000 29.189039
20.341900 861.000000 29.342802
20.359700 854.000000 29.223278
20.377600 866.000000 29.427878
20.395500 837.000000 28.930952
20.413400 869.000000 29.478806
20.431300 911.000000 30.182777
20.449100 871.000000 29.512709
20.467000 838.000000 28.948230
20.484900 823.000000 28.687977
20.502800 864.000000 29.393877
20.520700 859.000000 29.308702
20.538600 827.000000 28.757608
20.556400 841.000000 29.000000
20.574300 831.000000 28.827071
20.592200 836.000000 28.913665
20.610100 889.000000 29.816103
20.628000 872.000000 29.529646
20.645800 884.000000 29.732137
20.663700 877.000000 29.614186
20.681600 838.000000 28.948230
20.699500 854.000000 29.223278
20.717400 838.000000 28.948230
20.735200 806.000000 28.390139
20.753100 798.000000 28.248894
20.771000 817.000000 28.583212
20.788900 879.000000 29.647934
20.806800 794.000000 28.178006
20.824600 801.000000 28.301943
20.842500 836.000000 28.913665
20.860400 842.000000 29.017236
20.878300 790.000000 28.106939
20.896200 847.000000 29.103264
20.914100 815.000000 28.548205
20.931900 759.000000 27.549955
20.949800 780.000000 27.928480
20.967700 788.000000 28.071338
20.985600 787.000000 28.053520
21.003500 792.000000 28.142495
21.021300 792.000000 28.142495
21.039200 811.000000 28.478062
21.057100 806.000000 28.390139
21.075000 802.000000 28.319605
21.092900 819.000000 28.618176
21.110700 758.000000 27.531800
21.128600 797.000000 28.231188
21.146500 704.000000 26.532998
21.164400 774.000000 27.820855
21.182300 809.000000 28.442925
21.200100 780.000000 27.928480
21.218000 735.000000 27.110883
21.235900 744.000000 27.276363
21.253800 731.000000 27.037012
21.271700 752.000000 27.422618
21.289600 783.000000 27.982137
21.307400 738.000000 27.166155
21.325300 832.000000 28.844410
21.343200 786.000000 28.035692
21.361100 787.000000 28.053520
21.379000 772.000000 27.784888
21.396800 820.000000 28.635642
21.414700 837.000000 28.930952
21.432600 793.000000 28.160256
21.450500 755.000000 27.477263
21.468400 795.000000 28.195744
21.486200 791.000000 28.124722
21.504100 796.000000 28.213472
21.522000 720.000000 26.832816
21.539900 793.000000 28.160256
21.557800 721.000000 26.851443
21.575600 723.000000 26.888659
21.593500 758.000000 27.531800
21.611400 763.000000 27.622455
21.629300 830.000000 28.809721
21.647200 825.000000 28.722813
21.665100 762.000000 27.604347
21.682900 769.000000 27.730849
21.700800 769.000000 27.730849
21.718700 715.000000 26.739484
21.736600 700.000000 26.457513
21.754500 695.000000 26.362853
21.772300 706.000000 26.570661
21.790200 764.000000 27.640550
21.808100 699.000000 26.438608
21.826000 689.000000 26.248809
21.843900 733.000000 27.073973
21.861700 714.000000 26.720778
21.879600 709.000000 26.627054
21.897500 693.000000 26.324893
21.915400 731.000000 27.037012
21.933300 702.000000 26.495283
21.951100 756.000000 27.495454
21.969000 697.000000 26.400758
21.986900 695.000000 26.362853
22.004800 703.000000 26.514147
22.022700 681.000000 26.095977
22.040500 725.000000 26.925824
22.058400 662.000000 25.729361
22.076300 623.000000 24.959968
22.094200 657.000000 25.632011
22.112100 677.000000 26.019224
22.130000 640.000000 25.298221
22.147800 652.000000 25.534291
22.165700 637.000000 25.238859
22.183600 635.000000 25.199206
22.201500 641.000000 25.317978
22.219400 617.000000 24.839485
22.237200 621.000000 24.919872
22.255100 609.000000 24.677925
22.273000 632.000000 25.139610
22.290900 637.000000 25.238859
22.308800 653.000000 25.553865
22.326600 634.000000 25.179357
22.344500 628.000000 25.059928
22.362400 627.000000 25.039968
22.380300 638.000000 25.258662
22.398200 667.000000 25.826343
22.416000 615.000000 24.799194
22.433900 656.000000 25.612497
22.451800 621.000000 24.919872
22.469700 668.000000 25.845696
22.487600 684.000000 26.153394
22.505500 634.000000 25.179357
22.523300 669.000000 25.865034
22.541200 650.000000 25.495098
22.559100 664.000000 25.768197
22.577000 658.000000 25.651511
22.594900 622.000000 24.939928
22.612700 638.000000 25.258662
22.630600 619.000000 24.879711
22.648500 605.000000 24.596748
22.666400 586.000000 24.207437
22.684300 608.000000 24.657656
22.702100 585.000000 24.186773
22.720000 615.000000 24.799194
22.737900 627.000000 25.039968
22.755800 642.000000 25.337719
22.773700 603.000000 24.556058
22.791500 621.000000 24.919872
22.809400 624.000000 24.979992
22.827300 618.000000 24.859606
22.845200 623.000000 24.959968
22.863100 598.000000 24.454039
22.881000 647.000000 25.436195
22.898800 611.000000 24.718414
22.916700 580.000000 24.083189
22.934600 619.000000 24.879711
22.952500 594.000000 24.372115
22.970400 629.000000 25.079872
22.988200 602.000000 24.535688
23.006100 677.000000 26.019224
23.024000 622.000000 24.939928
23.041900 683.000000 26.134269
23.059800 611.000000 24.718414
23.077600 640.000000 25.298221
23.095500 656.000000 25.612497
23.113400 616.000000 24.819347
23.131300 611.000000 24.718414
23.149200 605.000000 24.596748
23.167000 582.000000 24.124676
23.184900 578.000000 24.041631
23.202800 585.000000 24.186773
23.220700 591.000000 24.310492
23.238600 641.000000 25.317978
23.256500 636.000000 25.219040
23.274300 607.000000 24.637370
23.292200 601.000000 24.515301
23.310100 597.000000 24.433583
23.328000 598.000000 24.454039
23.345900 614.000000 24.779023
23.363700 586.000000 24.207437
23.381600 591.000000 24.310492
23.399500 600.000000 24.494897
23.417400 625.000000 25.000000
23.435300 553.000000 23.515952
23.453100 583.000000 24.145393
23.471000 605.000000 24.596748
23.488900 640.000000 25.298221
23.506800 506.000000 22.494444
23.524700 572.000000 23.916521
23.542500 651.000000 25.514702
23.560400 529.000000 23.000000
23.578300 563.000000 23.727621
23.596200 582.000000 24.124676
23.614100 561.000000 23.685439
23.632000 622.000000 24.939928
23.649800 591.000000 24.310492
23.667700 597.000000 24.433583
23.685600 581.000000 24.103942
23.703500 576.000000 24.000000
23.721400 572.000000 23.916521
23.739200 581.000000 24.103942
23.757100 587.000000 24.228083
23.775000 561.000000 23.685439
23.792900 567.000000 23.811762
23.810800 575.000000 23.979158
23.828600 592.000000 24.331050
23.846500 593.000000 24.351591
23.864400 553.000000 23.515952
23.882300 582.000000 24.124676
23.900200 561.000000 23.685439
23.918000 583.000000 24.145393
23.935900 604.000000 24.576411
23.953800 567.000000 23.811762
23.971700 575.000000 23.979158
23.989600 558.000000 23.622024
24.007400 566.000000 23.790755
24.025300 607.000000 24.637370
24.043200 593.000000 24.351591
24.061100 625.000000 25.000000
24.079000 535.000000 23.130067
24.096900 584.000000 24.166092
24.114700 570.000000 23.874673
24.132600 574.000000 23.958297
24.150500 555.000000 23.558438
24.168400 583.000000 24.145393
24.186300 596.000000 24.413111
24.204100 529.000000 23.000000
24.222000 513.000000 22.649503
24.239900 564.000000 23.748684
24.257800 585.000000 24.186773
24.275700 574.000000 23.958297
24.293500 555.000000 23.558438
24.311400 594.000000 24.372115
24.329300 607.000000 24.637370
24.347200 597.000000 24.433583
24.365100 577.000000 24.020824
24.382900 601.000000 24.515301
24.400800 600.000000 24.494897
24.418700 584.000000 24.166092
24.436600 554.000000 23.537205
24.454500 552.000000 23.494680
24.472400 563.000000 23.727621
24.490200 580.000000 24.083189
24.508100 522.000000 22.847319
24.526000 534.000000 23.108440
24.543900 560.000000 23.664319
24.561800 559.000000 23.643181
24.579600 554.000000 23.537205
24.597500 597.000000 24.433583
24.615400 570.000000 23.874673
24.633300 575.000000 23.979158
24.651200 541.000000 23.259407
24.669000 561.000000 23.685439
24.686900 595.000000 24.392622
24.704800 557.000000 23.600847
24.722700 556.000000 23.579652
24.740600 531.000000 23.043437
24.758400 548.000000 23.409400
24.776300 561.000000 23.685439
24.794200 578.000000 24.041631
24.812100 548.000000 23.409400
24.830000 564.000000 23.748684
24.847900 561.000000 23.685439
24.865700 558.000000 23.622024
24.883600 542.000000 23.280893
24.901500 559.000000 23.643181
24.919400 572.000000 23.916521
24.937300 543.000000 23.302360
24.955100 558.000000 23.622024
24.973000 580.000000 24.083189
24.990900 573.000000 23.937418
25.008800 628.000000 25.059928
25.026700 619.000000 24.879711
25.044500 658.000000 25.651511
25.062400 732.000000 27.055499
25.080300 640.000000 25.298221
25.098200 613.000000 24.758837
25.116100 668.000000 25.845696
25.133900 630.000000 25.099801
25.151800 617.000000 24.839485
25.169700 642.000000 25.337719
25.187600 572.000000 23.916521
25.205500 629.000000 25.079872
25.223400 621.000000 24.919872
25.241200 619.000000 24.879711
25.259100 642.000000 25.337719
25.277000 580.000000 24.083189
25.294900 593.000000 24.351591
25.312800 533.000000 23.086793
25.330600 560.000000 23.664319
25.348500 529.000000 23.000000
25.366400 561.000000 23.685439
25.384300 473.000000 21.748563
25.402200 499.000000 22.338308
25.420000 481.000000 21.931712
25.437900 466.000000 21.587033
25.455800 500.000000 22.360680
25.473700 504.000000 22.449944
25.491600 474.000000 21.771541
25.509400 496.000000 22.271057
25.527300 470.000000 21.679483
25.545200 470.000000 21.679483
25.563100 500.000000 22.360680
25.581000 541.000000 23.259407
25.598800 492.000000 22.181073
25.616700 464.000000 21.540659
25.634600 491.000000 22.158520
25.652500 445.000000 21.095023
25.670400 495.000000 22.248595
25.688300 531.000000 23.043437
25.706100 472.000000 21.725561
25.724000 506.000000 22.494444
25.741900 483.000000 21.977261
25.759800 482.000000 21.954498
25.777700 475.000000 21.794495
25.795500 497.000000 22.293497
25.813400 466.000000 21.587033
25.831300 432.000000 20.784610
25.849200 498.000000 22.315914
25.867100 458.000000 21.400935
25.884900 464.000000 21.540659
25.902800 452.000000 21.260292
25.920700 452.000000 21.260292
25.938600 462.000000 21.494185
25.956500 443.000000 21.047565
25.974300 458.000000 21.400935
25.992200 500.000000 22.360680
26.010100 498.000000 22.315914
26.028000 442.000000 21.023796
26.045900 455.000000 21.330729
26.063800 473.000000 21.748563
26.081600 482.000000 21.954498
26.099500 480.000000 21.908902
26.117400 474.000000 21.771541
26.135300 456.000000 21.354157
26.153200 430.000000 20.736441
26.171000 477.000000 21.840330
26.188900 457.000000 21.377558
26.206800 467.000000 21.610183
26.224700 463.000000 21.517435
26.242600 451.000000 21.236761
26.260400 488.000000 22.090722
26.278300 437.000000 20.904545
26.296200 481.000000 21.931712
26.314100 480.000000 21.908902
26.332000 463.000000 21.517435
26.349800 461.000000 21.470911
26.367700 511.000000 22.605309
26.385600 446.000000 21.118712
26.403500 497.000000 22.293497
26.421400 442.000000 21.023796
26.439300 437.000000 20.904545
26.457100 441.000000 21.000000
26.475000 441.000000 21.000000
26.492900 425.000000 20.615528
26.510800 448.000000 21.166010
26.528700 454.000000 21.307276
26.546500 431.000000 20.760539
26.564400 436.000000 20.880613
26.582300 447.000000 21.142375
26.600200 434.000000 20.832667
26.618100 446.000000 21.118712
26.635900 398.000000 19.949937
26.653800 397.000000 19.924859
26.671700 409.000000 20.223748
26.689600 401.000000 20.024984
26.707500 422.000000 20.542639
26.725300 441.000000 21.000000
26.743200 461.000000 21.470911
26.761100 427.000000 20.663978
26.779000 391.000000 19.773720
26.796900 441.000000 21.000000
26.814800 422.000000 20.542639
26.832600 385.000000 19.621417
26.850500 405.000000 20.124612
26.868400 420.000000 20.493902
26.886300 434.000000 20.832667
26.904200 376.000000 19.390719
26.922000 422.000000 20.542639
26.939900 402.000000 20.049938
26.957800 418.000000 20.445048
26.975700 426.000000 20.639767
26.993600 444.000000 21.071308
27.011400 414.000000 20.346990
27.029300 418.000000 20.445048
27.047200 449.000000 21.189620
27.065100 401.000000 20.024984
27.083000 445.000000 21.095023
27.100800 419.000000 20.469489
27.118700 422.000000 20.542639
27.136600 410.000000 20.248457
27.154500 413.000000 20.322401
27.172400 393.000000 19.824228
27.190200 403.000000 20.074860
27.208100 426.000000 20.639767
27.226000 401.000000 20.024984
27.243900 400.000000 20.000000
27.261800 411.000000 20.273135
27.279700 388.000000 19.697716
27.297500 451.000000 21.236761
27.315400 430.000000 20.736441
27.333300 412.000000 20.297783
27.351200 414.000000 20.346990
27.369100 407.000000 20.174241
27.386900 412.000000 20.297783
27.404800 381.000000 19.519221
27.422700 384.000000 19.595918
27.440600 440.000000 20.976177
27.458500 379.000000 19.467922
27.476300 471.000000 21.702534
27.494200 433.000000 20.808652
27.512100 382.000000 19.544820
27.530000 416.000000 20.396078
27.547900 417.000000 20.420578
27.565700 411.000000 20.273135
27.583600 408.000000 20.199010
27.601500 402.000000 20.049938
27.619400 397.000000 19.924859
27.637300 467.000000 21.610183
27.655200 428.000000 20.688161
27.673000 421.000000 20.518285
27.690900 403.000000 20.074860
27.708800 427.000000 20.663978
27.726700 425.000000 20.615528
27.744600 352.000000 18.761663
27.762400 353.000000 18.788294
27.780300 385.000000 19.621417
27.798200 394.000000 19.849433
27.816100 372.000000 19.287302
27.834000 373.000000 19.313208
27.851800 378.000000 19.442222
27.869700 368.000000 19.183326
27.887600 383.000000 19.570386
27.905500 397.000000 19.924859
27.923400 360.000000 18.973666
27.941200 358.000000 18.920888
27.959100 374.000000 19.339080
27.977000 386.000000 19.646883
27.994900 381.000000 19.519221
28.012800 415.000000 20.371549
28.030700 356.000000 18.867962
28.048500 348.000000 18.654758
28.066400 380.000000 19.493589
28.084300 363.000000 19.052559
28.102200 385.000000 19.621417
28.120100 353.000000 18.788294
28.137900 391.000000 19.773720
28.155800 369.000000 19.209373
28.173700 428.000000 20.688161
28.191600 365.000000 19.104973
28.209500 359.000000 18.947295
28.227300 349.000000 18.681542
28.245200 357.000000 18.894444
28.263100 350.000000 18.708287
28.281000 377.000000 19.416488
28.298900 357.000000 18.894444
28.316700 382.000000 19.544820
28.334600 389.000000 19.723083
28.352500 383.000000 19.570386
28.370400 383.000000 19.570386
28.388300 360.000000 18.973666
28.406200 359.000000 18.947295
28.424000 366.000000 19.131126
28.441900 356.000000 18.867962
28.459800 400.000000 20.000000
28.477700 362.000000 19.026298
28.495600 365.000000 19.104973
28.513400 360.000000 18.973666
28.531300 402.000000 20.049938
28.549200 367.000000 19.157244
28.567100 393.000000 19.824228
28.585000 429.000000 20.712315
28.602800 390.000000 19.748418
28.620700 395.000000 19.874607
28.638600 373.000000 19.313208
28.656500 381.000000 19.519221
28.674400 384.000000 19.595918
28.692200 378.000000 19.442222
28.710100 337.000000 18.357560
28.728000 339.000000 18.411953
28.745900 344.000000 18.547237
28.763800 367.000000 19.157244
28.781600 336.000000 18.330303
28.799500 340.000000 18.439089
28.817400 345.000000 18.574176
28.835300 354.000000 18.814888
28.853200 329.000000 18.138357
28.871100 371.000000 19.261360
28.888900 325.000000 18.027756
28.906800 307.000000 17.521415
28.924700 327.000000 18.083141
28.942600 353.000000 18.788294
28.960500 310.000000 17.606817
28.978300 334.000000 18.275667
28.996200 359.000000 18.947295
29.014100 378.000000 19.442222
29.032000 349.000000 18.681542
29.049900 305.000000 17.464249
29.067700 356.000000 18.867962
29.085600 344.000000 18.547237
29.103500 305.000000 17.464249
29.121400 327.000000 18.083141
29.139300 314.000000 17.720045
29.157100 317.000000 17.804494
29.175000 346.000000 18.601075
29.192900 304.000000 17.435596
29.210800 318.000000 17.832555
29.228700 333.000000 18.248288
29.246600 326.000000 18.055470
29.264400 312.000000 17.663522
29.282300 312.000000 17.663522
29.300200 315.000000 17.748239
29.318100 317.000000 17.804494
29.336000 344.000000 18.547237
29.353800 322.000000 17.944358
29.371700 343.000000 18.520259
29.389600 315.000000 17.748239
29.407500 323.000000 17.972201
29.425400 314.000000 17.720045
29.443200 292.000000 17.088007
29.461100 326.000000 18.055470
29.479000 293.000000 17.117243
29.496900 305.000000 17.464249
29.514800 357.000000 18.894444
29.532600 283.000000 16.822604
29.550500 335.000000 18.303005
29.568400 337.000000 18.357560
29.586300 342.000000 18.493242
29.604200 325.000000 18.027756
29.622100 321.000000 17.916473
29.639900 313.000000 17.691806
29.657800 357.000000 18.894444
29.675700 364.000000 19.078784
29.693600 351.000000 18.734994
29.711500 346.000000 18.601075
29.729300 382.000000 19.544820
29.747200 377.000000 19.416488
29.765100 352.000000 18.761663
29.783000 354.000000 18.814888
29.800900 376.000000 19.390719
29.818700 353.000000 18.788294
29.836600 305.000000 17.464249
29.854500 314.000000 17.720045
29.872400 304.000000 17.435596
29.890300 328.000000 18.110770
29.908100 322.000000 17.944358
29.926000 339.000000 18.411953
29.943900 308.000000 17.549929
29.961800 332.000000 18.220867
29.979700 357.000000 18.894444
29.997600 316.000000 17.776389
