# Two-Theta Intensity Error
10.000000 651.000000 25.514702
10.028606 706.000000 26.570661
10.057213 695.000000 26.362853
10.085819 734.000000 27.092434
10.114426 782.000000 27.964263
10.143032 804.000000 28.354894
10.171639 947.000000 30.773365
10.200245 1030.000000 32.093613
10.228852 1142.000000 33.793490
10.257458 1125.000000 33.541020
10.286065 919.000000 30.315013
10.314671 777.000000 27.874720
10.343277 697.000000 26.400758
10.371884 660.000000 25.690465
10.400490 681.000000 26.095977
10.429097 595.000000 24.392622
10.457703 649.000000 25.475478
10.486310 587.000000 24.228083
10.514916 616.000000 24.819347
10.543523 635.000000 25.199206
10.572129 590.000000 24.289916
10.600736 559.000000 23.643181
10.629342 596.000000 24.413111
10.657949 580.000000 24.083189
10.686555 558.000000 23.622024
10.715161 583.000000 24.145393
10.743768 588.000000 24.248711
10.772374 564.000000 23.748684
10.800981 552.000000 23.494680
10.829587 557.000000 23.600847
10.858194 574.000000 23.958297
10.886800 564.000000 23.748684
10.915407 575.000000 23.979158
10.944013 613.000000 24.758837
10.972620 576.000000 24.000000
11.001226 540.000000 23.237900
11.029832 552.000000 23.494680
11.058439 565.000000 23.769729
11.087045 567.000000 23.811762
11.115652 588.000000 24.248711
11.144258 538.000000 23.194827
11.172865 568.000000 23.832751
11.201471 551.000000 23.473389
11.230078 547.000000 23.388031
11.258684 501.000000 22.383029
11.287291 538.000000 23.194827
11.315897 528.000000 22.978251
11.344503 535.000000 23.130067
11.373110 552.000000 23.494680
11.401716 566.000000 23.790755
11.430323 531.000000 23.043437
11.458929 546.000000 23.366643
11.487536 515.000000 22.693611
11.516142 495.000000 22.248595
11.544749 542.000000 23.280893
11.573355 553.000000 23.515952
11.601962 570.000000 23.874673
11.630568 527.000000 22.956481
11.659174 509.000000 22.561028
11.687781 485.000000 22.022716
11.716387 517.000000 22.737634
11.744994 528.000000 22.978251
11.773600 544.000000 23.323808
11.802207 489.000000 22.113344
11.830813 498.000000 22.315914
11.859420 459.000000 21.424285
11.888026 516.000000 22.715633
11.916633 466.000000 21.587033
11.945239 501.000000 22.383029
11.973846 471.000000 21.702534
12.002452 465.000000 21.563859
12.031058 543.000000 23.302360
12.059665 463.000000 21.517435
12.088271 492.000000 22.181073
12.116878 507.000000 22.516660
12.145484 487.000000 22.068076
12.174091 512.000000 22.627417
12.202697 465.000000 21.563859
12.231304 498.000000 22.315914
12.259910 472.000000 21.725561
12.288517 486.000000 22.045408
12.317123 477.000000 21.840330
12.345729 448.000000 21.166010
12.374336 456.000000 21.354157
12.402942 523.000000 22.869193
12.431549 447.000000 21.142375
12.460155 435.000000 20.856654
12.488762 458.000000 21.400935
12.517368 463.000000 21.517435
12.545975 470.000000 21.679483
12.574581 479.000000 21.886069
12.603188 455.000000 21.330729
12.631794 439.000000 20.952327
12.660400 459.000000 21.424285
12.689007 449.000000 21.189620
12.717613 450.000000 21.213203
12.746220 417.000000 20.420578
12.774826 430.000000 20.736441
12.803433 414.000000 20.346990
12.832039 438.000000 20.928450
12.860646 482.000000 21.954498
12.889252 430.000000 20.736441
12.917859 409.000000 20.223748
12.946465 439.000000 20.952327
12.975072 431.000000 20.760539
13.003678 406.000000 20.149442
13.032284 411.000000 20.273135
13.060891 420.000000 20.493902
13.089497 385.000000 19.621417
13.118104 406.000000 20.149442
13.146710 423.000000 20.566964
13.175317 407.000000 20.174241
13.203923 411.000000 20.273135
13.232530 396.000000 19.899749
13.261136 417.000000 20.420578
13.289743 407.000000 20.174241
13.318349 400.000000 20.000000
13.346955 396.000000 19.899749
13.375562 359.000000 18.947295
13.404168 408.000000 20.199010
13.432775 365.000000 19.104973
13.461381 346.000000 18.601075
13.489988 364.000000 19.078784
13.518594 376.000000 19.390719
13.547201 326.000000 18.055470
13.575807 401.000000 20.024984
13.604414 372.000000 19.287302
13.633020 363.000000 19.052559
13.661626 326.000000 18.055470
13.690233 358.000000 18.920888
13.718839 355.000000 18.841444
13.747446 350.000000 18.708287
13.776052 367.000000 19.157244
13.804659 339.000000 18.411953
13.833265 355.000000 18.841444
13.861872 339.000000 18.411953
13.890478 369.000000 19.209373
13.919085 349.000000 18.681542
13.947691 328.000000 18.110770
13.976298 308.000000 17.549929
14.004904 311.000000 17.635192
14.033510 324.000000 18.000000
14.062117 306.000000 17.492856
14.090723 337.000000 18.357560
14.119330 332.000000 18.220867
14.147936 301.000000 17.349352
14.176543 284.000000 16.852300
14.205149 339.000000 18.411953
14.233756 311.000000 17.635192
14.262362 322.000000 17.944358
14.290969 304.000000 17.435596
14.319575 273.000000 16.522712
14.348181 313.000000 17.691806
14.376788 312.000000 17.663522
14.405394 317.000000 17.804494
14.434001 315.000000 17.748239
14.462607 321.000000 17.916473
14.491214 284.000000 16.852300
14.519820 310.000000 17.606817
14.548427 277.000000 16.643317
14.577033 263.000000 16.217275
14.605640 299.000000 17.291616
14.634246 275.000000 16.583124
14.662852 293.000000 17.117243
14.691459 291.000000 17.058722
14.720065 317.000000 17.804494
14.748672 270.000000 16.431677
14.777278 267.000000 16.340135
14.805885 276.000000 16.613248
14.834491 286.000000 16.911535
14.863098 276.000000 16.613248
14.891704 278.000000 16.673332
14.920311 279.000000 16.703293
14.948917 269.000000 16.401219
14.977523 266.000000 16.309506
15.006130 262.000000 16.186414
15.034736 269.000000 16.401219
15.063343 269.000000 16.401219
15.091949 300.000000 17.320508
15.120556 293.000000 17.117243
15.149162 262.000000 16.186414
15.177769 249.000000 15.779734
15.206375 274.000000 16.552945
15.234982 243.000000 15.588457
15.263588 260.000000 16.124515
15.292195 274.000000 16.552945
15.320801 262.000000 16.186414
15.349407 269.000000 16.401219
15.378014 264.000000 16.248077
15.406620 260.000000 16.124515
15.435227 245.000000 15.652476
15.463833 246.000000 15.684387
15.492440 266.000000 16.309506
15.521046 240.000000 15.491933
15.549653 223.000000 14.933185
15.578259 254.000000 15.937377
15.606866 256.000000 16.000000
15.635472 238.000000 15.427249
15.664078 241.000000 15.524175
15.692685 248.000000 15.748016
15.721291 213.000000 14.594520
15.749898 208.000000 14.422205
15.778504 244.000000 15.620499
15.807111 251.000000 15.842980
15.835717 211.000000 14.525839
15.864324 220.000000 14.832397
15.892930 242.000000 15.556349
15.921537 233.000000 15.264338
15.950143 217.000000 14.730920
15.978749 215.000000 14.662878
16.007356 229.000000 15.132746
16.035962 214.000000 14.628739
16.064569 247.000000 15.716234
16.093175 218.000000 14.764823
16.121782 217.000000 14.730920
16.150388 227.000000 15.066519
16.178995 223.000000 14.933185
16.207601 222.000000 14.899664
16.236208 185.000000 13.601471
16.264814 234.000000 15.297059
16.293421 200.000000 14.142136
16.322027 231.000000 15.198684
16.350633 208.000000 14.422205
16.379240 198.000000 14.071247
16.407846 210.000000 14.491377
16.436453 235.000000 15.329710
16.465059 211.000000 14.525839
16.493666 227.000000 15.066519
16.522272 197.000000 14.035669
16.550879 204.000000 14.282857
16.579485 185.000000 13.601471
16.608092 252.000000 15.874508
16.636698 186.000000 13.638182
16.665304 204.000000 14.282857
16.693911 196.000000 14.000000
16.722517 208.000000 14.422205
16.751124 190.000000 13.784049
16.779730 201.000000 14.177447
16.808337 215.000000 14.662878
16.836943 219.000000 14.798649
16.865550 217.000000 14.730920
16.894156 174.000000 13.190906
16.922763 208.000000 14.422205
16.951369 208.000000 14.422205
16.979975 205.000000 14.317821
17.008582 204.000000 14.282857
17.037188 203.000000 14.247807
17.065795 175.000000 13.228757
17.094401 186.000000 13.638182
17.123008 209.000000 14.456832
17.151614 183.000000 13.527749
17.180221 202.000000 14.212670
17.208827 165.000000 12.845233
17.237434 173.000000 13.152946
17.266040 195.000000 13.964240
17.294647 175.000000 13.228757
17.323253 191.000000 13.820275
17.351859 179.000000 13.379088
17.380466 188.000000 13.711309
17.409072 220.000000 14.832397
17.437679 190.000000 13.784049
17.466285 171.000000 13.076697
17.494892 177.000000 13.304135
17.523498 180.000000 13.416408
17.552105 164.000000 12.806248
17.580711 184.000000 13.564660
17.609318 196.000000 14.000000
17.637924 174.000000 13.190906
17.666530 186.000000 13.638182
17.695137 160.000000 12.649111
17.723743 192.000000 13.856406
17.752350 159.000000 12.609520
17.780956 183.000000 13.527749
17.809563 189.000000 13.747727
17.838169 156.000000 12.489996
17.866776 154.000000 12.409674
17.895382 181.000000 13.453624
17.923989 143.000000 11.958261
17.952595 155.000000 12.449900
17.981201 182.000000 13.490738
18.009808 177.000000 13.304135
18.038414 157.000000 12.529964
18.067021 157.000000 12.529964
18.095627 186.000000 13.638182
18.124234 150.000000 12.247449
18.152840 152.000000 12.328828
18.181447 160.000000 12.649111
18.210053 178.000000 13.341664
18.238660 168.000000 12.961481
18.267266 164.000000 12.806248
18.295872 170.000000 13.038405
18.324479 157.000000 12.529964
18.353085 149.000000 12.206556
18.381692 156.000000 12.489996
18.410298 169.000000 13.000000
18.438905 168.000000 12.961481
18.467511 147.000000 12.124356
18.496118 132.000000 11.489125
18.524724 159.000000 12.609520
18.553331 173.000000 13.152946
18.581937 154.000000 12.409674
18.610544 152.000000 12.328828
18.639150 146.000000 12.083046
18.667756 153.000000 12.369317
18.696363 150.000000 12.247449
18.724969 144.000000 12.000000
18.753576 159.000000 12.609520
18.782182 159.000000 12.609520
18.810789 152.000000 12.328828
18.839395 148.000000 12.165525
18.868002 157.000000 12.529964
18.896608 137.000000 11.704700
18.925215 149.000000 12.206556
18.953821 152.000000 12.328828
18.982427 166.000000 12.884099
19.011034 134.000000 11.575837
19.039640 144.000000 12.000000
19.068247 164.000000 12.806248
19.096853 160.000000 12.649111
19.125460 156.000000 12.489996
19.154066 133.000000 11.532563
19.182673 150.000000 12.247449
19.211279 137.000000 11.704700
19.239886 149.000000 12.206556
19.268492 160.000000 12.649111
19.297098 163.000000 12.767145
19.325705 144.000000 12.000000
19.354311 121.000000 11.000000
19.382918 147.000000 12.124356
19.411524 161.000000 12.688578
19.440131 151.000000 12.288206
19.468737 156.000000 12.489996
19.497344 132.000000 11.489125
19.525950 132.000000 11.489125
19.554557 122.000000 11.045361
19.583163 141.000000 11.874342
19.611770 139.000000 11.789826
19.640376 140.000000 11.832160
19.668982 133.000000 11.532563
19.697589 130.000000 11.401754
19.726195 147.000000 12.124356
19.754802 141.000000 11.874342
19.783408 134.000000 11.575837
19.812015 147.000000 12.124356
19.840621 123.000000 11.090537
19.869228 136.000000 11.661904
19.897834 146.000000 12.083046
19.926441 133.000000 11.532563
19.955047 131.000000 11.445523
19.983653 132.000000 11.489125
20.012260 135.000000 11.618950
20.040866 134.000000 11.575837
20.069473 133.000000 11.532563
20.098079 111.000000 10.535654
20.126686 144.000000 12.000000
20.155292 141.000000 11.874342
20.183899 126.000000 11.224972
20.212505 130.000000 11.401754
20.241112 124.000000 11.135529
20.269718 143.000000 11.958261
20.298324 126.000000 11.224972
20.326931 133.000000 11.532563
20.355537 141.000000 11.874342
20.384144 122.000000 11.045361
20.412750 132.000000 11.489125
20.441357 121.000000 11.000000
20.469963 133.000000 11.532563
20.498570 137.000000 11.704700
20.527176 125.000000 11.180340
20.555783 115.000000 10.723805
20.584389 95.000000 9.746794
20.612996 138.000000 11.747340
20.641602 114.000000 10.677078
20.670208 150.000000 12.247449
20.698815 118.000000 10.862780
20.727421 139.000000 11.789826
20.756028 123.000000 11.090537
20.784634 118.000000 10.862780
20.813241 108.000000 10.392305
20.841847 114.000000 10.677078
20.870454 135.000000 11.618950
20.899060 112.000000 10.583005
20.927667 129.000000 11.357817
20.956273 114.000000 10.677078
20.984879 128.000000 11.313708
21.013486 114.000000 10.677078
21.042092 103.000000 10.148892
21.070699 122.000000 11.045361
21.099305 112.000000 10.583005
21.127912 123.000000 11.090537
21.156518 105.000000 10.246951
21.185125 111.000000 10.535654
21.213731 120.000000 10.954451
21.242338 118.000000 10.862780
21.270944 98.000000 9.899495
21.299550 113.000000 10.630146
21.328157 121.000000 11.000000
21.356763 108.000000 10.392305
21.385370 114.000000 10.677078
21.413976 105.000000 10.246951
21.442583 111.000000 10.535654
21.471189 119.000000 10.908712
21.499796 110.000000 10.488088
21.528402 93.000000 9.643651
21.557009 115.000000 10.723805
21.585615 98.000000 9.899495
21.614221 105.000000 10.246951
21.642828 114.000000 10.677078
21.671434 106.000000 10.295630
21.700041 111.000000 10.535654
21.728647 108.000000 10.392305
21.757254 102.000000 10.099505
21.785860 119.000000 10.908712
21.814467 105.000000 10.246951
21.843073 95.000000 9.746794
21.871680 94.000000 9.695360
21.900286 123.000000 11.090537
21.928893 105.000000 10.246951
21.957499 111.000000 10.535654
21.986105 104.000000 10.198039
22.014712 100.000000 10.000000
22.043318 102.000000 10.099505
22.071925 91.000000 9.539392
22.100531 106.000000 10.295630
22.129138 135.000000 11.618950
22.157744 106.000000 10.295630
22.186351 101.000000 10.049876
22.214957 97.000000 9.848858
22.243564 70.000000 8.366600
22.272170 90.000000 9.486833
22.300776 127.000000 11.269428
22.329383 88.000000 9.380832
22.357989 115.000000 10.723805
22.386596 110.000000 10.488088
22.415202 89.000000 9.433981
22.443809 80.000000 8.944272
22.472415 93.000000 9.643651
22.501022 95.000000 9.746794
22.529628 88.000000 9.380832
22.558235 91.000000 9.539392
22.586841 93.000000 9.643651
22.615447 89.000000 9.433981
22.644054 103.000000 10.148892
22.672660 88.000000 9.380832
22.701267 107.000000 10.344080
22.729873 97.000000 9.848858
22.758480 88.000000 9.380832
22.787086 81.000000 9.000000
22.815693 103.000000 10.148892
22.844299 81.000000 9.000000
22.872906 82.000000 9.055385
22.901512 91.000000 9.539392
22.930119 107.000000 10.344080
22.958725 87.000000 9.327379
22.987331 101.000000 10.049876
23.015938 105.000000 10.246951
23.044544 85.000000 9.219544
23.073151 77.000000 8.774964
23.101757 81.000000 9.000000
23.130364 80.000000 8.944272
23.158970 89.000000 9.433981
23.187577 92.000000 9.591663
23.216183 87.000000 9.327379
23.244790 83.000000 9.110434
23.273396 82.000000 9.055385
23.302002 89.000000 9.433981
23.330609 98.000000 9.899495
23.359215 97.000000 9.848858
23.387822 74.000000 8.602325
23.416428 88.000000 9.380832
23.445035 113.000000 10.630146
23.473641 82.000000 9.055385
23.502248 95.000000 9.746794
23.530854 97.000000 9.848858
23.559461 96.000000 9.797959
23.588067 88.000000 9.380832
23.616673 102.000000 10.099505
23.645280 87.000000 9.327379
23.673886 90.000000 9.486833
23.702493 88.000000 9.380832
23.731099 87.000000 9.327379
23.759706 97.000000 9.848858
23.788312 82.000000 9.055385
23.816919 93.000000 9.643651
23.845525 87.000000 9.327379
23.874132 91.000000 9.539392
23.902738 89.000000 9.433981
23.931345 84.000000 9.165151
23.959951 89.000000 9.433981
23.988557 84.000000 9.165151
24.017164 78.000000 8.831761
24.045770 89.000000 9.433981
24.074377 83.000000 9.110434
24.102983 74.000000 8.602325
24.131590 85.000000 9.219544
24.160196 106.000000 10.295630
24.188803 96.000000 9.797959
24.217409 99.000000 9.949874
24.246016 91.000000 9.539392
24.274622 102.000000 10.099505
24.303228 101.000000 10.049876
24.331835 88.000000 9.380832
24.360441 92.000000 9.591663
24.389048 113.000000 10.630146
24.417654 116.000000 10.770330
24.446261 149.000000 12.206556
24.474867 169.000000 13.000000
24.503474 240.000000 15.491933
24.532080 336.000000 18.330303
24.560687 470.000000 21.679483
24.589293 480.000000 21.908902
24.617899 414.000000 20.346990
24.646506 328.000000 18.110770
24.675112 234.000000 15.297059
24.703719 174.000000 13.190906
24.732325 137.000000 11.704700
24.760932 100.000000 10.000000
24.789538 129.000000 11.357817
24.818145 99.000000 9.949874
24.846751 109.000000 10.440307
24.875358 91.000000 9.539392
24.903964 95.000000 9.746794
24.932570 94.000000 9.695360
24.961177 84.000000 9.165151
24.989783 78.000000 8.831761
25.018390 86.000000 9.273618
25.046996 81.000000 9.000000
25.075603 87.000000 9.327379
25.104209 59.000000 7.681146
25.132816 83.000000 9.110434
25.161422 90.000000 9.486833
25.190029 81.000000 9.000000
25.218635 74.000000 8.602325
25.247242 78.000000 8.831761
25.275848 87.000000 9.327379
25.304454 71.000000 8.426150
25.333061 79.000000 8.888194
25.361667 90.000000 9.486833
25.390274 67.000000 8.185353
25.418880 85.000000 9.219544
25.447487 85.000000 9.219544
25.476093 97.000000 9.848858
25.504700 112.000000 10.583005
25.533306 115.000000 10.723805
25.561913 145.000000 12.041595
25.590519 158.000000 12.569805
25.619125 189.000000 13.747727
25.647732 202.000000 14.212670
25.676338 224.000000 14.966630
25.704945 192.000000 13.856406
25.733551 189.000000 13.747727
25.762158 161.000000 12.688578
25.790764 147.000000 12.124356
25.819371 155.000000 12.449900
25.847977 144.000000 12.000000
25.876584 120.000000 10.954451
25.905190 125.000000 11.180340
25.933796 102.000000 10.099505
25.962403 102.000000 10.099505
25.991009 108.000000 10.392305
26.019616 95.000000 9.746794
26.048222 89.000000 9.433981
26.076829 89.000000 9.433981
26.105435 100.000000 10.000000
26.134042 87.000000 9.327379
26.162648 99.000000 9.949874
26.191255 88.000000 9.380832
26.219861 90.000000 9.486833
26.248468 96.000000 9.797959
26.277074 94.000000 9.695360
26.305680 114.000000 10.677078
26.334287 117.000000 10.816654
26.362893 136.000000 11.661904
26.391500 145.000000 12.041595
26.420106 139.000000 11.789826
26.448713 173.000000 13.152946
26.477319 202.000000 14.212670
26.505926 161.000000 12.688578
26.534532 158.000000 12.569805
26.563139 157.000000 12.529964
26.591745 113.000000 10.630146
26.620351 107.000000 10.344080
26.648958 91.000000 9.539392
26.677564 74.000000 8.602325
26.706171 76.000000 8.717798
26.734777 72.000000 8.485281
26.763384 72.000000 8.485281
26.791990 95.000000 9.746794
26.820597 67.000000 8.185353
26.849203 84.000000 9.165151
26.877810 78.000000 8.831761
26.906416 61.000000 7.810250
26.935022 60.000000 7.745967
26.963629 77.000000 8.774964
26.992235 67.000000 8.185353
27.020842 78.000000 8.831761
27.049448 66.000000 8.124038
27.078055 55.000000 7.416198
27.106661 72.000000 8.485281
27.135268 65.000000 8.062258
27.163874 61.000000 7.810250
27.192481 62.000000 7.874008
27.221087 59.000000 7.681146
27.249694 79.000000 8.888194
27.278300 60.000000 7.745967
27.306906 51.000000 7.141428
27.335513 73.000000 8.544004
27.364119 58.000000 7.615773
27.392726 61.000000 7.810250
27.421332 58.000000 7.615773
27.449939 70.000000 8.366600
27.478545 62.000000 7.874008
27.507152 55.000000 7.416198
27.535758 59.000000 7.681146
27.564365 58.000000 7.615773
27.592971 50.000000 7.071068
27.621577 47.000000 6.855655
27.650184 60.000000 7.745967
27.678790 76.000000 8.717798
27.707397 57.000000 7.549834
27.736003 59.000000 7.681146
27.764610 74.000000 8.602325
27.793216 78.000000 8.831761
27.821823 68.000000 8.246211
27.850429 59.000000 7.681146
27.879036 71.000000 8.426150
27.907642 78.000000 8.831761
27.936248 55.000000 7.416198
27.964855 48.000000 6.928203
27.993461 65.000000 8.062258
28.022068 56.000000 7.483315
28.050674 63.000000 7.937254
28.079281 70.000000 8.366600
28.107887 50.000000 7.071068
28.136494 49.000000 7.000000
28.165100 52.000000 7.211103
28.193707 62.000000 7.874008
28.222313 71.000000 8.426150
28.250919 60.000000 7.745967
28.279526 55.000000 7.416198
28.308132 51.000000 7.141428
28.336739 58.000000 7.615773
28.365345 45.000000 6.708204
28.393952 51.000000 7.141428
28.422558 69.000000 8.306624
28.451165 61.000000 7.810250
28.479771 65.000000 8.062258
28.508378 57.000000 7.549834
28.536984 46.000000 6.782330
28.565591 59.000000 7.681146
28.594197 60.000000 7.745967
28.622803 60.000000 7.745967
28.651410 57.000000 7.549834
28.680016 69.000000 8.306624
28.708623 47.000000 6.855655
28.737229 67.000000 8.185353
28.765836 58.000000 7.615773
28.794442 70.000000 8.366600
28.823049 78.000000 8.831761
28.851655 60.000000 7.745967
28.880262 63.000000 7.937254
28.908868 77.000000 8.774964
28.937474 75.000000 8.660254
28.966081 66.000000 8.124038
28.994687 62.000000 7.874008
29.023294 66.000000 8.124038
29.051900 63.000000 7.937254
29.080507 67.000000 8.185353
29.109113 74.000000 8.602325
29.137720 82.000000 9.055385
29.166326 59.000000 7.681146
29.194933 75.000000 8.660254
29.223539 61.000000 7.810250
29.252145 60.000000 7.745967
29.280752 80.000000 8.944272
29.309358 58.000000 7.615773
29.337965 71.000000 8.426150
29.366571 76.000000 8.717798
29.395178 69.000000 8.306624
29.423784 74.000000 8.602325
29.452391 80.000000 8.944272
29.480997 59.000000 7.681146
29.509604 56.000000 7.483315
29.538210 85.000000 9.219544
29.566817 77.000000 8.774964
29.595423 73.000000 8.544004
29.624029 88.000000 9.380832
29.652636 115.000000 10.723805
29.681242 110.000000 10.488088
29.709849 111.000000 10.535654
29.738455 112.000000 10.583005
29.767062 105.000000 10.246951
29.795668 94.000000 9.695360
29.824275 90.000000 9.486833
29.852881 84.000000 9.165151
29.881488 64.000000 8.000000
29.910094 66.000000 8.124038
29.938700 57.000000 7.549834
29.967307 60.000000 7.745967
29.995913 62.000000 7.874008
30.024520 74.000000 8.602325
30.053126 82.000000 9.055385
30.081733 75.000000 8.660254
30.110339 67.000000 8.185353
30.138946 58.000000 7.615773
30.167552 80.000000 8.944272
30.196159 78.000000 8.831761
30.224765 79.000000 8.888194
30.253371 89.000000 9.433981
30.281978 95.000000 9.746794
30.310584 86.000000 9.273618
30.339191 95.000000 9.746794
30.367797 82.000000 9.055385
30.396404 63.000000 7.937254
30.425010 79.000000 8.888194
30.453617 81.000000 9.000000
30.482223 58.000000 7.615773
30.510830 74.000000 8.602325
30.539436 74.000000 8.602325
30.568043 64.000000 8.000000
30.596649 62.000000 7.874008
30.625255 64.000000 8.000000
30.653862 52.000000 7.211103
30.682468 65.000000 8.062258
30.711075 61.000000 7.810250
30.739681 66.000000 8.124038
30.768288 75.000000 8.660254
30.796894 64.000000 8.000000
30.825501 70.000000 8.366600
30.854107 64.000000 8.000000
30.882714 80.000000 8.944272
30.911320 79.000000 8.888194
30.939926 85.000000 9.219544
30.968533 53.000000 7.280110
30.997139 83.000000 9.110434
31.025746 85.000000 9.219544
31.054352 77.000000 8.774964
31.082959 72.000000 8.485281
31.111565 83.000000 9.110434
31.140172 83.000000 9.110434
31.168778 74.000000 8.602325
31.197385 74.000000 8.602325
31.225991 67.000000 8.185353
31.254597 75.000000 8.660254
31.283204 72.000000 8.485281
31.311810 87.000000 9.327379
31.340417 75.000000 8.660254
31.369023 91.000000 9.539392
31.397630 70.000000 8.366600
31.426236 76.000000 8.717798
31.454843 76.000000 8.717798
31.483449 78.000000 8.831761
31.512056 79.000000 8.888194
31.540662 71.000000 8.426150
31.569268 80.000000 8.944272
31.597875 59.000000 7.681146
31.626481 81.000000 9.000000
31.655088 76.000000 8.717798
31.683694 84.000000 9.165151
31.712301 67.000000 8.185353
31.740907 83.000000 9.110434
31.769514 72.000000 8.485281
31.798120 77.000000 8.774964
31.826727 98.000000 9.899495
31.855333 83.000000 9.110434
31.883940 82.000000 9.055385
31.912546 89.000000 9.433981
31.941152 82.000000 9.055385
31.969759 77.000000 8.774964
31.998365 92.000000 9.591663
32.026972 108.000000 10.392305
32.055578 85.000000 9.219544
32.084185 104.000000 10.198039
32.112791 113.000000 10.630146
32.141398 104.000000 10.198039
32.170004 127.000000 11.269428
32.198611 122.000000 11.045361
32.227217 123.000000 11.090537
32.255823 131.000000 11.445523
32.284430 152.000000 12.328828
32.313036 165.000000 12.845233
32.341643 165.000000 12.845233
32.370249 181.000000 13.453624
32.398856 198.000000 14.071247
32.427462 212.000000 14.560220
32.456069 265.000000 16.278821
32.484675 264.000000 16.248077
32.513282 296.000000 17.204651
32.541888 378.000000 19.442222
32.570494 458.000000 21.400935
32.599101 546.000000 23.366643
32.627707 685.000000 26.172505
32.656314 794.000000 28.178006
32.684920 882.000000 29.698485
32.713527 834.000000 28.879058
32.742133 803.000000 28.337255
32.770740 703.000000 26.514147
32.799346 624.000000 24.979992
32.827953 519.000000 22.781571
32.856559 451.000000 21.236761
32.885166 391.000000 19.773720
32.913772 297.000000 17.233688
32.942378 292.000000 17.088007
32.970985 259.000000 16.093477
32.999591 231.000000 15.198684
33.028198 183.000000 13.527749
33.056804 173.000000 13.152946
33.085411 167.000000 12.922848
33.114017 159.000000 12.609520
33.142624 138.000000 11.747340
33.171230 158.000000 12.569805
33.199837 137.000000 11.704700
33.228443 152.000000 12.328828
33.257049 137.000000 11.704700
33.285656 121.000000 11.000000
33.314262 131.000000 11.445523
33.342869 122.000000 11.045361
33.371475 107.000000 10.344080
33.400082 106.000000 10.295630
33.428688 117.000000 10.816654
33.457295 122.000000 11.045361
33.485901 107.000000 10.344080
33.514508 113.000000 10.630146
33.543114 132.000000 11.489125
33.571720 112.000000 10.583005
33.600327 117.000000 10.816654
33.628933 98.000000 9.899495
33.657540 114.000000 10.677078
33.686146 98.000000 9.899495
33.714753 91.000000 9.539392
33.743359 92.000000 9.591663
33.771966 117.000000 10.816654
33.800572 95.000000 9.746794
33.829179 91.000000 9.539392
33.857785 93.000000 9.643651
33.886391 115.000000 10.723805
33.914998 82.000000 9.055385
33.943604 100.000000 10.000000
33.972211 91.000000 9.539392
34.000817 85.000000 9.219544
34.029424 102.000000 10.099505
34.058030 90.000000 9.486833
34.086637 96.000000 9.797959
34.115243 97.000000 9.848858
34.143850 93.000000 9.643651
34.172456 85.000000 9.219544
34.201063 76.000000 8.717798
34.229669 90.000000 9.486833
34.258275 94.000000 9.695360
34.286882 94.000000 9.695360
34.315488 95.000000 9.746794
34.344095 86.000000 9.273618
34.372701 66.000000 8.124038
34.401308 87.000000 9.327379
34.429914 96.000000 9.797959
34.458521 85.000000 9.219544
34.487127 80.000000 8.944272
34.515734 79.000000 8.888194
34.544340 95.000000 9.746794
34.572946 93.000000 9.643651
34.601553 77.000000 8.774964
34.630159 96.000000 9.797959
34.658766 105.000000 10.246951
34.687372 80.000000 8.944272
34.715979 94.000000 9.695360
34.744585 93.000000 9.643651
34.773192 101.000000 10.049876
34.801798 72.000000 8.485281
34.830405 105.000000 10.246951
34.859011 90.000000 9.486833
34.887617 94.000000 9.695360
34.916224 90.000000 9.486833
34.944830 100.000000 10.000000
34.973437 83.000000 9.110434
35.002043 75.000000 8.660254
35.030650 104.000000 10.198039
35.059256 96.000000 9.797959
35.087863 82.000000 9.055385
35.116469 100.000000 10.000000
35.145076 93.000000 9.643651
35.173682 107.000000 10.344080
35.202289 101.000000 10.049876
35.230895 105.000000 10.246951
35.259501 108.000000 10.392305
35.288108 131.000000 11.445523
35.316714 128.000000 11.313708
35.345321 157.000000 12.529964
35.373927 213.000000 14.594520
35.402534 225.000000 15.000000
35.431140 294.000000 17.146428
35.459747 324.000000 18.000000
35.488353 400.000000 20.000000
35.516960 348.000000 18.654758
35.545566 334.000000 18.275667
35.574172 264.000000 16.248077
35.602779 246.000000 15.684387
35.631385 209.000000 14.456832
35.659992 190.000000 13.784049
35.688598 157.000000 12.529964
35.717205 132.000000 11.489125
35.745811 109.000000 10.440307
35.774418 120.000000 10.954451
35.803024 101.000000 10.049876
35.831631 97.000000 9.848858
35.860237 97.000000 9.848858
35.888843 105.000000 10.246951
35.917450 98.000000 9.899495
35.946056 112.000000 10.583005
35.974663 113.000000 10.630146
36.003269 118.000000 10.862780
36.031876 93.000000 9.643651
36.060482 109.000000 10.440307
36.089089 125.000000 11.180340
36.117695 124.000000 11.135529
36.146302 118.000000 10.862780
36.174908 117.000000 10.816654
36.203515 132.000000 11.489125
36.232121 142.000000 11.916375
36.260727 130.000000 11.401754
36.289334 145.000000 12.041595
36.317940 147.000000 12.124356
36.346547 152.000000 12.328828
36.375153 169.000000 13.000000
36.403760 140.000000 11.832160
36.432366 146.000000 12.083046
36.460973 139.000000 11.789826
36.489579 158.000000 12.569805
36.518186 132.000000 11.489125
36.546792 125.000000 11.180340
36.575398 150.000000 12.247449
36.604005 138.000000 11.747340
36.632611 148.000000 12.165525
36.661218 149.000000 12.206556
36.689824 113.000000 10.630146
36.718431 149.000000 12.206556
36.747037 151.000000 12.288206
36.775644 154.000000 12.409674
36.804250 163.000000 12.767145
36.832857 140.000000 11.832160
36.861463 151.000000 12.288206
36.890069 152.000000 12.328828
36.918676 152.000000 12.328828
36.947282 141.000000 11.874342
36.975889 163.000000 12.767145
37.004495 140.000000 11.832160
37.033102 180.000000 13.416408
37.061708 167.000000 12.922848
37.090315 164.000000 12.806248
37.118921 179.000000 13.379088
37.147528 186.000000 13.638182
37.176134 166.000000 12.884099
37.204740 169.000000 13.000000
37.233347 170.000000 13.038405
37.261953 187.000000 13.674794
37.290560 185.000000 13.601471
37.319166 228.000000 15.099669
37.347773 222.000000 14.899664
37.376379 184.000000 13.564660
37.404986 216.000000 14.696938
37.433592 226.000000 15.033296
37.462199 210.000000 14.491377
37.490805 249.000000 15.779734
37.519412 253.000000 15.905974
37.548018 259.000000 16.093477
37.576624 310.000000 17.606817
37.605231 298.000000 17.262677
37.633837 305.000000 17.464249
37.662444 296.000000 17.204651
37.691050 341.000000 18.466185
37.719657 394.000000 19.849433
37.748263 415.000000 20.371549
37.776870 441.000000 21.000000
37.805476 480.000000 21.908902
37.834083 599.000000 24.474477
37.862689 628.000000 25.059928
37.891295 710.000000 26.645825
37.919902 810.000000 28.460499
37.948508 1073.000000 32.756679
37.977115 1240.000000 35.213634
38.005721 1487.000000 38.561639
38.034328 1851.000000 43.023250
38.062934 2294.000000 47.895720
38.091541 2773.000000 52.659282
38.120147 3100.000000 55.677644
38.148754 3457.000000 58.796258
38.177360 3327.000000 57.680153
38.205966 3222.000000 56.762664
38.234573 2996.000000 54.735729
38.263179 2740.000000 52.345009
38.291786 2318.000000 48.145612
38.320392 1882.000000 43.382024
38.348999 1570.000000 39.623226
38.377605 1282.000000 35.805028
38.406212 1025.000000 32.015621
38.434818 914.000000 30.232433
38.463425 776.000000 27.856777
38.492031 608.000000 24.657656
38.520638 581.000000 24.103942
38.549244 495.000000 22.248595
38.577850 443.000000 21.047565
38.606457 374.000000 19.339080
38.635063 367.000000 19.157244
38.663670 363.000000 19.052559
38.692276 274.000000 16.552945
38.720883 325.000000 18.027756
38.749489 338.000000 18.384776
38.778096 271.000000 16.462078
38.806702 275.000000 16.583124
38.835309 267.000000 16.340135
38.863915 255.000000 15.968719
38.892521 249.000000 15.779734
38.921128 235.000000 15.329710
38.949734 238.000000 15.427249
38.978341 217.000000 14.730920
39.006947 211.000000 14.525839
39.035554 232.000000 15.231546
39.064160 231.000000 15.198684
39.092767 218.000000 14.764823
39.121373 218.000000 14.764823
39.149980 246.000000 15.684387
39.178586 220.000000 14.832397
39.207192 244.000000 15.620499
39.235799 192.000000 13.856406
39.264405 187.000000 13.674794
39.293012 182.000000 13.490738
39.321618 132.000000 11.489125
39.350225 155.000000 12.449900
39.378831 117.000000 10.816654
39.407438 128.000000 11.313708
39.436044 141.000000 11.874342
39.464651 150.000000 12.247449
39.493257 137.000000 11.704700
39.521864 135.000000 11.618950
39.550470 108.000000 10.392305
39.579076 120.000000 10.954451
39.607683 125.000000 11.180340
39.636289 127.000000 11.269428
39.664896 121.000000 11.000000
39.693502 119.000000 10.908712
39.722109 94.000000 9.695360
39.750715 122.000000 11.045361
39.779322 117.000000 10.816654
39.807928 133.000000 11.532563
39.836535 123.000000 11.090537
39.865141 124.000000 11.135529
39.893747 150.000000 12.247449
39.922354 136.000000 11.661904
39.950960 158.000000 12.569805
39.979567 195.000000 13.964240
40.008173 217.000000 14.730920
40.036780 241.000000 15.524175
40.065386 274.000000 16.552945
40.093993 232.000000 15.231546
40.122599 250.000000 15.811388
40.151206 234.000000 15.297059
40.179812 169.000000 13.000000
40.208418 159.000000 12.609520
40.237025 121.000000 11.000000
40.265631 126.000000 11.224972
40.294238 133.000000 11.532563
40.322844 100.000000 10.000000
40.351451 101.000000 10.049876
40.380057 107.000000 10.344080
40.408664 75.000000 8.660254
40.437270 80.000000 8.944272
40.465877 94.000000 9.695360
40.494483 88.000000 9.380832
40.523089 82.000000 9.055385
40.551696 100.000000 10.000000
40.580302 87.000000 9.327379
40.608909 85.000000 9.219544
40.637515 86.000000 9.273618
40.666122 80.000000 8.944272
40.694728 78.000000 8.831761
40.723335 80.000000 8.944272
40.751941 82.000000 9.055385
40.780548 64.000000 8.000000
40.809154 80.000000 8.944272
40.837761 73.000000 8.544004
40.866367 84.000000 9.165151
40.894973 76.000000 8.717798
40.923580 81.000000 9.000000
40.952186 71.000000 8.426150
40.980793 65.000000 8.062258
41.009399 73.000000 8.544004
41.038006 67.000000 8.185353
41.066612 49.000000 7.000000
41.095219 65.000000 8.062258
41.123825 69.000000 8.306624
41.152432 47.000000 6.855655
41.181038 53.000000 7.280110
41.209644 66.000000 8.124038
41.238251 59.000000 7.681146
41.266857 63.000000 7.937254
41.295464 66.000000 8.124038
41.324070 61.000000 7.810250
41.352677 52.000000 7.211103
41.381283 66.000000 8.124038
41.409890 58.000000 7.615773
41.438496 66.000000 8.124038
41.467103 42.000000 6.480741
41.495709 52.000000 7.211103
41.524315 50.000000 7.071068
41.552922 69.000000 8.306624
41.581528 50.000000 7.071068
41.610135 68.000000 8.246211
41.638741 51.000000 7.141428
41.667348 67.000000 8.185353
41.695954 59.000000 7.681146
41.724561 56.000000 7.483315
41.753167 66.000000 8.124038
41.781774 52.000000 7.211103
41.810380 58.000000 7.615773
41.838987 74.000000 8.602325
41.867593 56.000000 7.483315
41.896199 63.000000 7.937254
41.924806 55.000000 7.416198
41.953412 64.000000 8.000000
41.982019 63.000000 7.937254
42.010625 50.000000 7.071068
42.039232 64.000000 8.000000
42.067838 77.000000 8.774964
42.096445 60.000000 7.745967
42.125051 64.000000 8.000000
42.153658 70.000000 8.366600
42.182264 72.000000 8.485281
42.210870 72.000000 8.485281
42.239477 74.000000 8.602325
42.268083 80.000000 8.944272
42.296690 76.000000 8.717798
42.325296 100.000000 10.000000
42.353903 80.000000 8.944272
42.382509 94.000000 9.695360
42.411116 96.000000 9.797959
42.439722 68.000000 8.246211
42.468329 107.000000 10.344080
42.496935 97.000000 9.848858
42.525541 119.000000 10.908712
42.554148 117.000000 10.816654
42.582754 130.000000 11.401754
42.611361 158.000000 12.569805
42.639967 183.000000 13.527749
42.668574 179.000000 13.379088
42.697180 197.000000 14.035669
42.725787 232.000000 15.231546
42.754393 324.000000 18.000000
42.783000 312.000000 17.663522
42.811606 321.000000 17.916473
42.840213 321.000000 17.916473
42.868819 305.000000 17.464249
42.897425 312.000000 17.663522
42.926032 276.000000 16.613248
42.954638 241.000000 15.524175
42.983245 221.000000 14.866069
43.011851 189.000000 13.747727
43.040458 188.000000 13.711309
43.069064 128.000000 11.313708
43.097671 129.000000 11.357817
43.126277 103.000000 10.148892
43.154884 87.000000 9.327379
43.183490 109.000000 10.440307
43.212096 71.000000 8.426150
43.240703 87.000000 9.327379
43.269309 91.000000 9.539392
43.297916 86.000000 9.273618
43.326522 82.000000 9.055385
43.355129 81.000000 9.000000
43.383735 69.000000 8.306624
43.412342 79.000000 8.888194
43.440948 72.000000 8.485281
43.469555 87.000000 9.327379
43.498161 78.000000 8.831761
43.526767 79.000000 8.888194
43.555374 97.000000 9.848858
43.583980 100.000000 10.000000
43.612587 80.000000 8.944272
43.641193 84.000000 9.165151
43.669800 107.000000 10.344080
43.698406 99.000000 9.949874
43.727013 106.000000 10.295630
43.755619 117.000000 10.816654
43.784226 89.000000 9.433981
43.812832 108.000000 10.392305
43.841438 92.000000 9.591663
43.870045 84.000000 9.165151
43.898651 69.000000 8.306624
43.927258 74.000000 8.602325
43.955864 82.000000 9.055385
43.984471 80.000000 8.944272
44.013077 63.000000 7.937254
44.041684 80.000000 8.944272
44.070290 59.000000 7.681146
44.098897 61.000000 7.810250
44.127503 61.000000 7.810250
44.156110 66.000000 8.124038
44.184716 71.000000 8.426150
44.213322 78.000000 8.831761
44.241929 80.000000 8.944272
44.270535 74.000000 8.602325
44.299142 91.000000 9.539392
44.327748 61.000000 7.810250
44.356355 80.000000 8.944272
44.384961 73.000000 8.544004
44.413568 54.000000 7.348469
44.442174 58.000000 7.615773
44.470781 64.000000 8.000000
44.499387 74.000000 8.602325
44.527993 61.000000 7.810250
44.556600 61.000000 7.810250
44.585206 68.000000 8.246211
44.613813 60.000000 7.745967
44.642419 62.000000 7.874008
44.671026 53.000000 7.280110
44.699632 53.000000 7.280110
44.728239 48.000000 6.928203
44.756845 51.000000 7.141428
44.785452 60.000000 7.745967
44.814058 44.000000 6.633250
44.842664 57.000000 7.549834
44.871271 39.000000 6.244998
44.899877 56.000000 7.483315
44.928484 52.000000 7.211103
44.957090 59.000000 7.681146
44.985697 43.000000 6.557439
45.014303 54.000000 7.348469
45.042910 58.000000 7.615773
45.071516 53.000000 7.280110
45.100123 47.000000 6.855655
45.128729 49.000000 7.000000
45.157336 52.000000 7.211103
45.185942 59.000000 7.681146
45.214548 61.000000 7.810250
45.243155 48.000000 6.928203
45.271761 64.000000 8.000000
45.300368 69.000000 8.306624
45.328974 53.000000 7.280110
45.357581 75.000000 8.660254
45.386187 85.000000 9.219544
45.414794 80.000000 8.944272
45.443400 96.000000 9.797959
45.472007 87.000000 9.327379
45.500613 76.000000 8.717798
45.529219 78.000000 8.831761
45.557826 59.000000 7.681146
45.586432 71.000000 8.426150
45.615039 72.000000 8.485281
45.643645 68.000000 8.246211
45.672252 52.000000 7.211103
45.700858 54.000000 7.348469
45.729465 48.000000 6.928203
45.758071 47.000000 6.855655
45.786678 51.000000 7.141428
45.815284 49.000000 7.000000
45.843890 58.000000 7.615773
45.872497 53.000000 7.280110
45.901103 48.000000 6.928203
45.929710 40.000000 6.324555
45.958316 68.000000 8.246211
45.986923 59.000000 7.681146
46.015529 62.000000 7.874008
46.044136 62.000000 7.874008
46.072742 52.000000 7.211103
46.101349 55.000000 7.416198
46.129955 73.000000 8.544004
46.158562 43.000000 6.557439
46.187168 53.000000 7.280110
46.215774 55.000000 7.416198
46.244381 66.000000 8.124038
46.272987 52.000000 7.211103
46.301594 68.000000 8.246211
46.330200 60.000000 7.745967
46.358807 50.000000 7.071068
46.387413 55.000000 7.416198
46.416020 64.000000 8.000000
46.444626 67.000000 8.185353
46.473233 60.000000 7.745967
46.501839 60.000000 7.745967
46.530445 48.000000 6.928203
46.559052 57.000000 7.549834
46.587658 52.000000 7.211103
46.616265 50.000000 7.071068
46.644871 66.000000 8.124038
46.673478 53.000000 7.280110
46.702084 48.000000 6.928203
46.730691 56.000000 7.483315
46.759297 59.000000 7.681146
46.787904 60.000000 7.745967
46.816510 74.000000 8.602325
46.845116 66.000000 8.124038
46.873723 53.000000 7.280110
46.902329 71.000000 8.426150
46.930936 67.000000 8.185353
46.959542 75.000000 8.660254
46.988149 68.000000 8.246211
47.016755 91.000000 9.539392
47.045362 83.000000 9.110434
47.073968 117.000000 10.816654
47.102575 115.000000 10.723805
47.131181 116.000000 10.770330
47.159787 143.000000 11.958261
47.188394 125.000000 11.180340
47.217000 176.000000 13.266499
47.245607 156.000000 12.489996
47.274213 169.000000 13.000000
47.302820 176.000000 13.266499
47.331426 169.000000 13.000000
47.360033 175.000000 13.228757
47.388639 157.000000 12.529964
47.417246 139.000000 11.789826
47.445852 154.000000 12.409674
47.474459 122.000000 11.045361
47.503065 136.000000 11.661904
47.531671 128.000000 11.313708
47.560278 82.000000 9.055385
47.588884 107.000000 10.344080
47.617491 100.000000 10.000000
47.646097 104.000000 10.198039
47.674704 91.000000 9.539392
47.703310 93.000000 9.643651
47.731917 104.000000 10.198039
47.760523 130.000000 11.401754
47.789130 119.000000 10.908712
47.817736 135.000000 11.618950
47.846342 129.000000 11.357817
47.874949 166.000000 12.884099
47.903555 150.000000 12.247449
47.932162 178.000000 13.341664
47.960768 217.000000 14.730920
47.989375 190.000000 13.784049
48.017981 195.000000 13.964240
48.046588 180.000000 13.416408
48.075194 168.000000 12.961481
48.103801 146.000000 12.083046
48.132407 154.000000 12.409674
48.161013 133.000000 11.532563
48.189620 118.000000 10.862780
48.218226 103.000000 10.148892
48.246833 83.000000 9.110434
48.275439 96.000000 9.797959
48.304046 80.000000 8.944272
48.332652 65.000000 8.062258
48.361259 76.000000 8.717798
48.389865 64.000000 8.000000
48.418472 76.000000 8.717798
48.447078 74.000000 8.602325
48.475685 67.000000 8.185353
48.504291 54.000000 7.348469
48.532897 59.000000 7.681146
48.561504 66.000000 8.124038
48.590110 53.000000 7.280110
48.618717 64.000000 8.000000
48.647323 67.000000 8.185353
48.675930 59.000000 7.681146
48.704536 51.000000 7.141428
48.733143 43.000000 6.557439
48.761749 71.000000 8.426150
48.790356 58.000000 7.615773
48.818962 57.000000 7.549834
48.847568 58.000000 7.615773
48.876175 42.000000 6.480741
48.904781 49.000000 7.000000
48.933388 35.000000 5.916080
48.961994 45.000000 6.708204
48.990601 41.000000 6.403124
49.019207 45.000000 6.708204
49.047814 39.000000 6.244998
49.076420 39.000000 6.244998
49.105027 48.000000 6.928203
49.133633 50.000000 7.071068
49.162239 41.000000 6.403124
49.190846 41.000000 6.403124
49.219452 49.000000 7.000000
49.248059 48.000000 6.928203
49.276665 45.000000 6.708204
49.305272 49.000000 7.000000
49.333878 33.000000 5.744563
49.362485 54.000000 7.348469
49.391091 32.000000 5.656854
49.419698 31.000000 5.567764
49.448304 46.000000 6.782330
49.476911 41.000000 6.403124
49.505517 46.000000 6.782330
49.534123 43.000000 6.557439
49.562730 53.000000 7.280110
49.591336 44.000000 6.633250
49.619943 37.000000 6.082763
49.648549 33.000000 5.744563
49.677156 43.000000 6.557439
49.705762 41.000000 6.403124
49.734369 43.000000 6.557439
49.762975 44.000000 6.633250
49.791582 41.000000 6.403124
49.820188 34.000000 5.830952
49.848794 44.000000 6.633250
49.877401 29.000000 5.385165
49.906007 43.000000 6.557439
49.934614 45.000000 6.708204
49.963220 47.000000 6.855655
49.991827 48.000000 6.928203
50.020433 49.000000 7.000000
50.049040 47.000000 6.855655
50.077646 50.000000 7.071068
50.106253 48.000000 6.928203
50.134859 43.000000 6.557439
50.163465 63.000000 7.937254
50.192072 42.000000 6.480741
50.220678 49.000000 7.000000
50.249285 44.000000 6.633250
50.277891 35.000000 5.916080
50.306498 52.000000 7.211103
50.335104 41.000000 6.403124
50.363711 36.000000 6.000000
50.392317 42.000000 6.480741
50.420924 33.000000 5.744563
50.449530 46.000000 6.782330
50.478136 40.000000 6.324555
50.506743 49.000000 7.000000
50.535349 38.000000 6.164414
50.563956 51.000000 7.141428
50.592562 32.000000 5.656854
50.621169 39.000000 6.244998
50.649775 39.000000 6.244998
50.678382 25.000000 5.000000
50.706988 46.000000 6.782330
50.735595 37.000000 6.082763
50.764201 32.000000 5.656854
50.792808 39.000000 6.244998
50.821414 34.000000 5.830952
50.850020 39.000000 6.244998
50.878627 40.000000 6.324555
50.907233 33.000000 5.744563
50.935840 48.000000 6.928203
50.964446 41.000000 6.403124
50.993053 31.000000 5.567764
51.021659 34.000000 5.830952
51.050266 45.000000 6.708204
51.078872 52.000000 7.211103
51.107479 41.000000 6.403124
51.136085 40.000000 6.324555
51.164691 39.000000 6.244998
51.193298 41.000000 6.403124
51.221904 47.000000 6.855655
51.250511 47.000000 6.855655
51.279117 60.000000 7.745967
51.307724 55.000000 7.416198
51.336330 61.000000 7.810250
51.364937 66.000000 8.124038
51.393543 47.000000 6.855655
51.422150 33.000000 5.744563
51.450756 49.000000 7.000000
51.479362 59.000000 7.681146
51.507969 52.000000 7.211103
51.536575 52.000000 7.211103
51.565182 65.000000 8.062258
51.593788 57.000000 7.549834
51.622395 47.000000 6.855655
51.651001 52.000000 7.211103
51.679608 49.000000 7.000000
51.708214 58.000000 7.615773
51.736821 52.000000 7.211103
51.765427 50.000000 7.071068
51.794034 72.000000 8.485281
51.822640 55.000000 7.416198
51.851246 60.000000 7.745967
51.879853 52.000000 7.211103
51.908459 67.000000 8.185353
51.937066 54.000000 7.348469
51.965672 58.000000 7.615773
51.994279 66.000000 8.124038
52.022885 53.000000 7.280110
52.051492 60.000000 7.745967
52.080098 67.000000 8.185353
52.108705 67.000000 8.185353
52.137311 70.000000 8.366600
52.165917 48.000000 6.928203
52.194524 52.000000 7.211103
52.223130 57.000000 7.549834
52.251737 59.000000 7.681146
52.280343 69.000000 8.306624
52.308950 42.000000 6.480741
52.337556 71.000000 8.426150
52.366163 71.000000 8.426150
52.394769 71.000000 8.426150
52.423376 46.000000 6.782330
52.451982 71.000000 8.426150
52.480588 45.000000 6.708204
52.509195 64.000000 8.000000
52.537801 57.000000 7.549834
52.566408 58.000000 7.615773
52.595014 52.000000 7.211103
52.623621 70.000000 8.366600
52.652227 49.000000 7.000000
52.680834 76.000000 8.717798
52.709440 56.000000 7.483315
52.738047 72.000000 8.485281
52.766653 69.000000 8.306624
52.795260 84.000000 9.165151
52.823866 73.000000 8.544004
52.852472 82.000000 9.055385
52.881079 80.000000 8.944272
52.909685 77.000000 8.774964
52.938292 82.000000 9.055385
52.966898 82.000000 9.055385
52.995505 90.000000 9.486833
53.024111 80.000000 8.944272
53.052718 94.000000 9.695360
53.081324 95.000000 9.746794
53.109931 113.000000 10.630146
53.138537 86.000000 9.273618
53.167143 95.000000 9.746794
53.195750 81.000000 9.000000
53.224356 107.000000 10.344080
53.252963 89.000000 9.433981
53.281569 83.000000 9.110434
53.310176 79.000000 8.888194
53.338782 78.000000 8.831761
53.367389 71.000000 8.426150
53.395995 77.000000 8.774964
53.424602 92.000000 9.591663
53.453208 94.000000 9.695360
53.481814 83.000000 9.110434
53.510421 75.000000 8.660254
53.539027 74.000000 8.602325
53.567634 98.000000 9.899495
53.596240 89.000000 9.433981
53.624847 85.000000 9.219544
53.653453 85.000000 9.219544
53.682060 105.000000 10.246951
53.710666 97.000000 9.848858
53.739273 102.000000 10.099505
53.767879 98.000000 9.899495
53.796485 102.000000 10.099505
53.825092 120.000000 10.954451
53.853698 95.000000 9.746794
53.882305 121.000000 11.000000
53.910911 125.000000 11.180340
53.939518 101.000000 10.049876
53.968124 142.000000 11.916375
53.996731 193.000000 13.892444
54.025337 254.000000 15.937377
54.053944 305.000000 17.464249
54.082550 398.000000 19.949937
54.111157 424.000000 20.591260
54.139763 390.000000 19.748418
54.168369 344.000000 18.547237
54.196976 261.000000 16.155494
54.225582 273.000000 16.522712
54.254189 282.000000 16.792856
54.282795 277.000000 16.643317
54.311402 217.000000 14.730920
54.340008 172.000000 13.114877
54.368615 135.000000 11.618950
54.397221 109.000000 10.440307
54.425828 110.000000 10.488088
54.454434 106.000000 10.295630
54.483040 102.000000 10.099505
54.511647 92.000000 9.591663
54.540253 85.000000 9.219544
54.568860 84.000000 9.165151
54.597466 68.000000 8.246211
54.626073 82.000000 9.055385
54.654679 83.000000 9.110434
54.683286 79.000000 8.888194
54.711892 66.000000 8.124038
54.740499 54.000000 7.348469
54.769105 75.000000 8.660254
54.797711 86.000000 9.273618
54.826318 70.000000 8.366600
54.854924 77.000000 8.774964
54.883531 84.000000 9.165151
54.912137 73.000000 8.544004
54.940744 73.000000 8.544004
54.969350 93.000000 9.643651
54.997957 96.000000 9.797959
55.026563 88.000000 9.380832
55.055170 91.000000 9.539392
55.083776 100.000000 10.000000
55.112383 83.000000 9.110434
55.140989 91.000000 9.539392
55.169595 88.000000 9.380832
55.198202 77.000000 8.774964
55.226808 98.000000 9.899495
55.255415 100.000000 10.000000
55.284021 78.000000 8.831761
55.312628 86.000000 9.273618
55.341234 82.000000 9.055385
55.369841 109.000000 10.440307
55.398447 78.000000 8.831761
55.427054 85.000000 9.219544
55.455660 76.000000 8.717798
55.484266 67.000000 8.185353
55.512873 73.000000 8.544004
55.541479 78.000000 8.831761
55.570086 77.000000 8.774964
55.598692 71.000000 8.426150
55.627299 66.000000 8.124038
55.655905 82.000000 9.055385
55.684512 80.000000 8.944272
55.713118 108.000000 10.392305
55.741725 93.000000 9.643651
55.770331 114.000000 10.677078
55.798937 110.000000 10.488088
55.827544 105.000000 10.246951
55.856150 139.000000 11.789826
55.884757 128.000000 11.313708
55.913363 137.000000 11.704700
55.941970 126.000000 11.224972
55.970576 162.000000 12.727922
55.999183 185.000000 13.601471
56.027789 176.000000 13.266499
56.056396 218.000000 14.764823
56.085002 207.000000 14.387495
56.113609 221.000000 14.866069
56.142215 325.000000 18.027756
56.170821 356.000000 18.867962
56.199428 426.000000 20.639767
56.228034 513.000000 22.649503
56.256641 556.000000 23.579652
56.285247 753.000000 27.440845
56.313854 783.000000 27.982137
56.342460 838.000000 28.948230
56.371067 855.000000 29.240383
56.399673 778.000000 27.892651
56.428280 822.000000 28.670542
56.456886 719.000000 26.814175
56.485492 688.000000 26.229754
56.514099 674.000000 25.961510
56.542705 629.000000 25.079872
56.571312 506.000000 22.494444
56.599918 501.000000 22.383029
56.628525 382.000000 19.544820
56.657131 393.000000 19.824228
56.685738 376.000000 19.390719
56.714344 381.000000 19.519221
56.742951 392.000000 19.798990
56.771557 375.000000 19.364917
56.800163 381.000000 19.519221
56.828770 350.000000 18.708287
56.857376 312.000000 17.663522
56.885983 267.000000 16.340135
56.914589 253.000000 15.905974
56.943196 262.000000 16.186414
56.971802 225.000000 15.000000
57.000409 224.000000 14.966630
57.029015 159.000000 12.609520
57.057622 158.000000 12.569805
57.086228 147.000000 12.124356
57.114834 118.000000 10.862780
57.143441 90.000000 9.486833
57.172047 112.000000 10.583005
57.200654 115.000000 10.723805
57.229260 86.000000 9.273618
57.257867 111.000000 10.535654
57.286473 98.000000 9.899495
57.315080 86.000000 9.273618
57.343686 84.000000 9.165151
57.372293 72.000000 8.485281
57.400899 72.000000 8.485281
57.429506 70.000000 8.366600
57.458112 76.000000 8.717798
57.486718 79.000000 8.888194
57.515325 60.000000 7.745967
57.543931 71.000000 8.426150
57.572538 67.000000 8.185353
57.601144 59.000000 7.681146
57.629751 66.000000 8.124038
57.658357 58.000000 7.615773
57.686964 68.000000 8.246211
57.715570 68.000000 8.246211
57.744177 52.000000 7.211103
57.772783 51.000000 7.141428
57.801389 53.000000 7.280110
57.829996 55.000000 7.416198
57.858602 52.000000 7.211103
57.887209 66.000000 8.124038
57.915815 42.000000 6.480741
57.944422 49.000000 7.000000
57.973028 37.000000 6.082763
58.001635 55.000000 7.416198
58.030241 55.000000 7.416198
58.058848 57.000000 7.549834
58.087454 62.000000 7.874008
58.116060 60.000000 7.745967
58.144667 46.000000 6.782330
58.173273 54.000000 7.348469
58.201880 56.000000 7.483315
58.230486 55.000000 7.416198
58.259093 53.000000 7.280110
58.287699 38.000000 6.164414
58.316306 48.000000 6.928203
58.344912 52.000000 7.211103
58.373519 52.000000 7.211103
58.402125 58.000000 7.615773
58.430732 38.000000 6.164414
58.459338 47.000000 6.855655
58.487944 46.000000 6.782330
58.516551 35.000000 5.916080
58.545157 44.000000 6.633250
58.573764 48.000000 6.928203
58.602370 38.000000 6.164414
58.630977 46.000000 6.782330
58.659583 53.000000 7.280110
58.688190 50.000000 7.071068
58.716796 64.000000 8.000000
58.745403 40.000000 6.324555
58.774009 46.000000 6.782330
58.802615 50.000000 7.071068
58.831222 48.000000 6.928203
58.859828 57.000000 7.549834
58.888435 53.000000 7.280110
58.917041 43.000000 6.557439
58.945648 51.000000 7.141428
58.974254 66.000000 8.124038
59.002861 53.000000 7.280110
59.031467 46.000000 6.782330
59.060074 26.000000 5.099020
59.088680 28.000000 5.291503
59.117286 42.000000 6.480741
59.145893 38.000000 6.164414
59.174499 36.000000 6.000000
59.203106 38.000000 6.164414
59.231712 43.000000 6.557439
59.260319 37.000000 6.082763
59.288925 36.000000 6.000000
59.317532 34.000000 5.830952
59.346138 39.000000 6.244998
59.374745 34.000000 5.830952
59.403351 36.000000 6.000000
59.431957 35.000000 5.916080
59.460564 27.000000 5.196152
59.489170 47.000000 6.855655
59.517777 40.000000 6.324555
59.546383 54.000000 7.348469
59.574990 64.000000 8.000000
59.603596 35.000000 5.916080
59.632203 47.000000 6.855655
59.660809 55.000000 7.416198
59.689416 51.000000 7.141428
59.718022 36.000000 6.000000
59.746629 44.000000 6.633250
59.775235 47.000000 6.855655
59.803841 51.000000 7.141428
59.832448 38.000000 6.164414
59.861054 44.000000 6.633250
59.889661 41.000000 6.403124
59.918267 43.000000 6.557439
59.946874 41.000000 6.403124
59.975480 38.000000 6.164414
60.004087 36.000000 6.000000
60.032693 35.000000 5.916080
60.061300 34.000000 5.830952
60.089906 44.000000 6.633250
60.118512 33.000000 5.744563
60.147119 41.000000 6.403124
60.175725 40.000000 6.324555
60.204332 58.000000 7.615773
60.232938 37.000000 6.082763
60.261545 51.000000 7.141428
60.290151 40.000000 6.324555
60.318758 35.000000 5.916080
60.347364 42.000000 6.480741
60.375971 39.000000 6.244998
60.404577 49.000000 7.000000
60.433183 41.000000 6.403124
60.461790 43.000000 6.557439
60.490396 45.000000 6.708204
60.519003 48.000000 6.928203
60.547609 33.000000 5.744563
60.576216 41.000000 6.403124
60.604822 42.000000 6.480741
60.633429 44.000000 6.633250
60.662035 47.000000 6.855655
60.690642 48.000000 6.928203
60.719248 51.000000 7.141428
60.747855 57.000000 7.549834
60.776461 42.000000 6.480741
60.805067 50.000000 7.071068
60.833674 41.000000 6.403124
60.862280 39.000000 6.244998
60.890887 39.000000 6.244998
60.919493 41.000000 6.403124
60.948100 41.000000 6.403124
60.976706 43.000000 6.557439
61.005313 35.000000 5.916080
61.033919 43.000000 6.557439
61.062526 39.000000 6.244998
61.091132 32.000000 5.656854
61.119738 37.000000 6.082763
61.148345 41.000000 6.403124
61.176951 42.000000 6.480741
61.205558 40.000000 6.324555
61.234164 47.000000 6.855655
61.262771 48.000000 6.928203
61.291377 47.000000 6.855655
61.319984 47.000000 6.855655
61.348590 43.000000 6.557439
61.377197 39.000000 6.244998
61.405803 43.000000 6.557439
61.434409 40.000000 6.324555
61.463016 44.000000 6.633250
61.491622 50.000000 7.071068
61.520229 39.000000 6.244998
61.548835 37.000000 6.082763
61.577442 37.000000 6.082763
61.606048 41.000000 6.403124
61.634655 29.000000 5.385165
61.663261 37.000000 6.082763
61.691868 43.000000 6.557439
61.720474 30.000000 5.477226
61.749081 49.000000 7.000000
61.777687 57.000000 7.549834
61.806293 35.000000 5.916080
61.834900 44.000000 6.633250
61.863506 41.000000 6.403124
61.892113 43.000000 6.557439
61.920719 49.000000 7.000000
61.949326 51.000000 7.141428
61.977932 47.000000 6.855655
62.006539 43.000000 6.557439
62.035145 37.000000 6.082763
62.063752 40.000000 6.324555
62.092358 41.000000 6.403124
62.120964 40.000000 6.324555
62.149571 46.000000 6.782330
62.178177 58.000000 7.615773
62.206784 45.000000 6.708204
62.235390 37.000000 6.082763
62.263997 38.000000 6.164414
62.292603 47.000000 6.855655
62.321210 43.000000 6.557439
62.349816 43.000000 6.557439
62.378423 40.000000 6.324555
62.407029 41.000000 6.403124
62.435635 64.000000 8.000000
62.464242 42.000000 6.480741
62.492848 41.000000 6.403124
62.521455 33.000000 5.744563
62.550061 48.000000 6.928203
62.578668 52.000000 7.211103
62.607274 49.000000 7.000000
62.635881 41.000000 6.403124
62.664487 37.000000 6.082763
62.693094 40.000000 6.324555
62.721700 45.000000 6.708204
62.750306 45.000000 6.708204
62.778913 58.000000 7.615773
62.807519 47.000000 6.855655
62.836126 43.000000 6.557439
62.864732 55.000000 7.416198
62.893339 38.000000 6.164414
62.921945 49.000000 7.000000
62.950552 46.000000 6.782330
62.979158 60.000000 7.745967
63.007765 54.000000 7.348469
63.036371 49.000000 7.000000
63.064978 53.000000 7.280110
63.093584 40.000000 6.324555
63.122190 47.000000 6.855655
63.150797 41.000000 6.403124
63.179403 50.000000 7.071068
63.208010 43.000000 6.557439
63.236616 52.000000 7.211103
63.265223 43.000000 6.557439
63.293829 49.000000 7.000000
63.322436 45.000000 6.708204
63.351042 57.000000 7.549834
63.379649 55.000000 7.416198
63.408255 59.000000 7.681146
63.436861 61.000000 7.810250
63.465468 42.000000 6.480741
63.494074 56.000000 7.483315
63.522681 52.000000 7.211103
63.551287 54.000000 7.348469
63.579894 49.000000 7.000000
63.608500 51.000000 7.141428
63.637107 60.000000 7.745967
63.665713 54.000000 7.348469
63.694320 58.000000 7.615773
63.722926 49.000000 7.000000
63.751532 61.000000 7.810250
63.780139 67.000000 8.185353
63.808745 84.000000 9.165151
63.837352 74.000000 8.602325
63.865958 81.000000 9.000000
63.894565 87.000000 9.327379
63.923171 86.000000 9.273618
63.951778 66.000000 8.124038
63.980384 85.000000 9.219544
64.008991 82.000000 9.055385
64.037597 86.000000 9.273618
64.066204 76.000000 8.717798
64.094810 75.000000 8.660254
64.123416 71.000000 8.426150
64.152023 81.000000 9.000000
64.180629 78.000000 8.831761
64.209236 61.000000 7.810250
64.237842 63.000000 7.937254
64.266449 56.000000 7.483315
64.295055 50.000000 7.071068
64.323662 51.000000 7.141428
64.352268 63.000000 7.937254
64.380875 61.000000 7.810250
64.409481 59.000000 7.681146
64.438087 60.000000 7.745967
64.466694 50.000000 7.071068
64.495300 52.000000 7.211103
64.523907 54.000000 7.348469
64.552513 58.000000 7.615773
64.581120 55.000000 7.416198
64.609726 58.000000 7.615773
64.638333 54.000000 7.348469
64.666939 63.000000 7.937254
64.695546 46.000000 6.782330
64.724152 50.000000 7.071068
64.752758 56.000000 7.483315
64.781365 52.000000 7.211103
64.809971 57.000000 7.549834
64.838578 60.000000 7.745967
64.867184 72.000000 8.485281
64.895791 57.000000 7.549834
64.924397 72.000000 8.485281
64.953004 74.000000 8.602325
64.981610 84.000000 9.165151
65.010217 56.000000 7.483315
65.038823 82.000000 9.055385
65.067430 65.000000 8.062258
65.096036 58.000000 7.615773
65.124642 93.000000 9.643651
65.153249 65.000000 8.062258
65.181855 71.000000 8.426150
65.210462 79.000000 8.888194
65.239068 66.000000 8.124038
65.267675 54.000000 7.348469
65.296281 69.000000 8.306624
65.324888 52.000000 7.211103
65.353494 48.000000 6.928203
65.382101 62.000000 7.874008
65.410707 69.000000 8.306624
65.439313 55.000000 7.416198
65.467920 51.000000 7.141428
65.496526 62.000000 7.874008
65.525133 75.000000 8.660254
65.553739 39.000000 6.244998
65.582346 59.000000 7.681146
65.610952 52.000000 7.211103
65.639559 71.000000 8.426150
65.668165 60.000000 7.745967
65.696772 64.000000 8.000000
65.725378 62.000000 7.874008
65.753984 64.000000 8.000000
65.782591 63.000000 7.937254
65.811197 59.000000 7.681146
65.839804 66.000000 8.124038
65.868410 66.000000 8.124038
65.897017 55.000000 7.416198
65.925623 57.000000 7.549834
65.954230 52.000000 7.211103
65.982836 72.000000 8.485281
66.011443 60.000000 7.745967
66.040049 67.000000 8.185353
66.068655 65.000000 8.062258
66.097262 73.000000 8.544004
66.125868 92.000000 9.591663
66.154475 95.000000 9.746794
66.183081 91.000000 9.539392
66.211688 98.000000 9.899495
66.240294 97.000000 9.848858
66.268901 90.000000 9.486833
66.297507 69.000000 8.306624
66.326114 98.000000 9.899495
66.354720 74.000000 8.602325
66.383327 92.000000 9.591663
66.411933 71.000000 8.426150
66.440539 78.000000 8.831761
66.469146 65.000000 8.062258
66.497752 74.000000 8.602325
66.526359 71.000000 8.426150
66.554965 63.000000 7.937254
66.583572 70.000000 8.366600
66.612178 83.000000 9.110434
66.640785 65.000000 8.062258
66.669391 51.000000 7.141428
66.697998 61.000000 7.810250
66.726604 95.000000 9.746794
66.755210 88.000000 9.380832
66.783817 96.000000 9.797959
66.812423 85.000000 9.219544
66.841030 80.000000 8.944272
66.869636 79.000000 8.888194
66.898243 78.000000 8.831761
66.926849 71.000000 8.426150
66.955456 65.000000 8.062258
66.984062 72.000000 8.485281
67.012669 75.000000 8.660254
67.041275 82.000000 9.055385
67.069881 87.000000 9.327379
67.098488 64.000000 8.000000
67.127094 76.000000 8.717798
67.155701 77.000000 8.774964
67.184307 64.000000 8.000000
67.212914 92.000000 9.591663
67.241520 78.000000 8.831761
67.270127 80.000000 8.944272
67.298733 87.000000 9.327379
67.327340 69.000000 8.306624
67.355946 77.000000 8.774964
67.384553 74.000000 8.602325
67.413159 104.000000 10.198039
67.441765 93.000000 9.643651
67.470372 101.000000 10.049876
67.498978 96.000000 9.797959
67.527585 85.000000 9.219544
67.556191 92.000000 9.591663
67.584798 90.000000 9.486833
67.613404 72.000000 8.485281
67.642011 80.000000 8.944272
67.670617 77.000000 8.774964
67.699224 97.000000 9.848858
67.727830 92.000000 9.591663
67.756436 91.000000 9.539392
67.785043 92.000000 9.591663
67.813649 86.000000 9.273618
67.842256 86.000000 9.273618
67.870862 97.000000 9.848858
67.899469 84.000000 9.165151
67.928075 83.000000 9.110434
67.956682 86.000000 9.273618
67.985288 79.000000 8.888194
68.013895 81.000000 9.000000
68.042501 83.000000 9.110434
68.071107 72.000000 8.485281
68.099714 79.000000 8.888194
68.128320 86.000000 9.273618
68.156927 78.000000 8.831761
68.185533 73.000000 8.544004
68.214140 83.000000 9.110434
68.242746 75.000000 8.660254
68.271353 83.000000 9.110434
68.299959 81.000000 9.000000
68.328566 67.000000 8.185353
68.357172 52.000000 7.211103
68.385779 71.000000 8.426150
68.414385 74.000000 8.602325
68.442991 85.000000 9.219544
68.471598 80.000000 8.944272
68.500204 75.000000 8.660254
68.528811 75.000000 8.660254
68.557417 74.000000 8.602325
68.586024 73.000000 8.544004
68.614630 85.000000 9.219544
68.643237 101.000000 10.049876
68.671843 80.000000 8.944272
68.700450 83.000000 9.110434
68.729056 81.000000 9.000000
68.757662 92.000000 9.591663
68.786269 98.000000 9.899495
68.814875 107.000000 10.344080
68.843482 123.000000 11.090537
68.872088 111.000000 10.535654
68.900695 115.000000 10.723805
68.929301 94.000000 9.695360
68.957908 112.000000 10.583005
68.986514 102.000000 10.099505
69.015121 123.000000 11.090537
69.043727 112.000000 10.583005
69.072333 122.000000 11.045361
69.100940 107.000000 10.344080
69.129546 131.000000 11.445523
69.158153 113.000000 10.630146
69.186759 100.000000 10.000000
69.215366 93.000000 9.643651
69.243972 103.000000 10.148892
69.272579 115.000000 10.723805
69.301185 97.000000 9.848858
69.329792 95.000000 9.746794
69.358398 96.000000 9.797959
69.387004 88.000000 9.380832
69.415611 106.000000 10.295630
69.444217 91.000000 9.539392
69.472824 74.000000 8.602325
69.501430 87.000000 9.327379
69.530037 78.000000 8.831761
69.558643 84.000000 9.165151
69.587250 85.000000 9.219544
69.615856 88.000000 9.380832
69.644463 86.000000 9.273618
69.673069 99.000000 9.949874
69.701676 101.000000 10.049876
69.730282 89.000000 9.433981
69.758888 107.000000 10.344080
69.787495 91.000000 9.539392
69.816101 100.000000 10.000000
69.844708 90.000000 9.486833
69.873314 108.000000 10.392305
69.901921 99.000000 9.949874
69.930527 118.000000 10.862780
69.959134 121.000000 11.000000
69.987740 109.000000 10.440307
70.016347 111.000000 10.535654
70.044953 112.000000 10.583005
70.073559 124.000000 11.135529
70.102166 147.000000 12.124356
70.130772 123.000000 11.090537
70.159379 136.000000 11.661904
70.187985 164.000000 12.806248
70.216592 140.000000 11.832160
70.245198 147.000000 12.124356
70.273805 155.000000 12.449900
70.302411 191.000000 13.820275
70.331018 170.000000 13.038405
70.359624 202.000000 14.212670
70.388230 216.000000 14.696938
70.416837 223.000000 14.933185
70.445443 221.000000 14.866069
70.474050 216.000000 14.696938
70.502656 238.000000 15.427249
70.531263 246.000000 15.684387
70.559869 278.000000 16.673332
70.588476 283.000000 16.822604
70.617082 329.000000 18.138357
70.645689 328.000000 18.110770
70.674295 360.000000 18.973666
70.702902 388.000000 19.697716
70.731508 427.000000 20.663978
70.760114 527.000000 22.956481
70.788721 549.000000 23.430749
70.817327 602.000000 24.535688
70.845934 612.000000 24.738634
70.874540 594.000000 24.372115
70.903147 623.000000 24.959968
70.931753 586.000000 24.207437
70.960360 581.000000 24.103942
70.988966 542.000000 23.280893
71.017573 515.000000 22.693611
71.046179 441.000000 21.000000
71.074785 422.000000 20.542639
71.103392 408.000000 20.199010
71.131998 340.000000 18.439089
71.160605 318.000000 17.832555
71.189211 256.000000 16.000000
71.217818 253.000000 15.905974
71.246424 215.000000 14.662878
71.275031 219.000000 14.798649
71.303637 170.000000 13.038405
71.332244 140.000000 11.832160
71.360850 153.000000 12.369317
71.389456 158.000000 12.569805
71.418063 136.000000 11.661904
71.446669 108.000000 10.392305
71.475276 124.000000 11.135529
71.503882 108.000000 10.392305
71.532489 106.000000 10.295630
71.561095 118.000000 10.862780
71.589702 106.000000 10.295630
71.618308 93.000000 9.643651
71.646915 92.000000 9.591663
71.675521 92.000000 9.591663
71.704128 84.000000 9.165151
71.732734 94.000000 9.695360
71.761340 81.000000 9.000000
71.789947 70.000000 8.366600
71.818553 94.000000 9.695360
71.847160 82.000000 9.055385
71.875766 68.000000 8.246211
71.904373 69.000000 8.306624
71.932979 74.000000 8.602325
71.961586 69.000000 8.306624
71.990192 67.000000 8.185353
72.018799 59.000000 7.681146
72.047405 78.000000 8.831761
72.076011 75.000000 8.660254
72.104618 73.000000 8.544004
72.133224 67.000000 8.185353
72.161831 67.000000 8.185353
72.190437 61.000000 7.810250
72.219044 64.000000 8.000000
72.247650 53.000000 7.280110
72.276257 64.000000 8.000000
72.304863 47.000000 6.855655
72.333470 65.000000 8.062258
72.362076 55.000000 7.416198
72.390682 54.000000 7.348469
72.419289 49.000000 7.000000
72.447895 63.000000 7.937254
72.476502 54.000000 7.348469
72.505108 43.000000 6.557439
72.533715 61.000000 7.810250
72.562321 46.000000 6.782330
72.590928 47.000000 6.855655
72.619534 55.000000 7.416198
72.648141 60.000000 7.745967
72.676747 48.000000 6.928203
72.705353 42.000000 6.480741
72.733960 40.000000 6.324555
72.762566 74.000000 8.602325
72.791173 48.000000 6.928203
72.819779 55.000000 7.416198
72.848386 55.000000 7.416198
72.876992 48.000000 6.928203
72.905599 58.000000 7.615773
72.934205 41.000000 6.403124
72.962812 49.000000 7.000000
72.991418 55.000000 7.416198
73.020025 56.000000 7.483315
73.048631 40.000000 6.324555
73.077237 58.000000 7.615773
73.105844 53.000000 7.280110
73.134450 59.000000 7.681146
73.163057 45.000000 6.708204
73.191663 41.000000 6.403124
73.220270 55.000000 7.416198
73.248876 67.000000 8.185353
73.277483 59.000000 7.681146
73.306089 54.000000 7.348469
73.334696 63.000000 7.937254
73.363302 53.000000 7.280110
73.391908 67.000000 8.185353
73.420515 55.000000 7.416198
73.449121 73.000000 8.544004
73.477728 69.000000 8.306624
73.506334 53.000000 7.280110
73.534941 68.000000 8.246211
73.563547 61.000000 7.810250
73.592154 47.000000 6.855655
73.620760 66.000000 8.124038
73.649367 53.000000 7.280110
73.677973 66.000000 8.124038
73.706579 65.000000 8.062258
73.735186 56.000000 7.483315
73.763792 43.000000 6.557439
73.792399 48.000000 6.928203
73.821005 42.000000 6.480741
73.849612 55.000000 7.416198
73.878218 49.000000 7.000000
73.906825 55.000000 7.416198
73.935431 46.000000 6.782330
73.964038 40.000000 6.324555
73.992644 54.000000 7.348469
74.021251 60.000000 7.745967
74.049857 56.000000 7.483315
74.078463 55.000000 7.416198
74.107070 43.000000 6.557439
74.135676 39.000000 6.244998
74.164283 42.000000 6.480741
74.192889 53.000000 7.280110
74.221496 54.000000 7.348469
74.250102 38.000000 6.164414
74.278709 36.000000 6.000000
74.307315 38.000000 6.164414
74.335922 43.000000 6.557439
74.364528 40.000000 6.324555
74.393134 52.000000 7.211103
74.421741 53.000000 7.280110
74.450347 42.000000 6.480741
74.478954 48.000000 6.928203
74.507560 47.000000 6.855655
74.536167 47.000000 6.855655
74.564773 43.000000 6.557439
74.593380 51.000000 7.141428
74.621986 47.000000 6.855655
74.650593 65.000000 8.062258
74.679199 56.000000 7.483315
74.707805 34.000000 5.830952
74.736412 39.000000 6.244998
74.765018 42.000000 6.480741
74.793625 49.000000 7.000000
74.822231 40.000000 6.324555
74.850838 34.000000 5.830952
74.879444 34.000000 5.830952
74.908051 35.000000 5.916080
74.936657 38.000000 6.164414
74.965264 46.000000 6.782330
74.993870 44.000000 6.633250
75.022477 37.000000 6.082763
75.051083 46.000000 6.782330
75.079689 36.000000 6.000000
75.108296 34.000000 5.830952
75.136902 44.000000 6.633250
75.165509 32.000000 5.656854
75.194115 42.000000 6.480741
75.222722 34.000000 5.830952
75.251328 33.000000 5.744563
75.279935 50.000000 7.071068
75.308541 30.000000 5.477226
75.337148 42.000000 6.480741
75.365754 38.000000 6.164414
75.394360 39.000000 6.244998
75.422967 37.000000 6.082763
75.451573 49.000000 7.000000
75.480180 38.000000 6.164414
75.508786 38.000000 6.164414
75.537393 40.000000 6.324555
75.565999 45.000000 6.708204
75.594606 36.000000 6.000000
75.623212 31.000000 5.567764
75.651819 40.000000 6.324555
75.680425 33.000000 5.744563
75.709031 41.000000 6.403124
75.737638 26.000000 5.099020
75.766244 40.000000 6.324555
75.794851 41.000000 6.403124
75.823457 48.000000 6.928203
75.852064 33.000000 5.744563
75.880670 53.000000 7.280110
75.909277 32.000000 5.656854
75.937883 43.000000 6.557439
75.966490 49.000000 7.000000
75.995096 55.000000 7.416198
76.023702 43.000000 6.557439
76.052309 55.000000 7.416198
76.080915 45.000000 6.708204
76.109522 56.000000 7.483315
76.138128 56.000000 7.483315
76.166735 53.000000 7.280110
76.195341 52.000000 7.211103
76.223948 75.000000 8.660254
76.252554 41.000000 6.403124
76.281161 42.000000 6.480741
76.309767 58.000000 7.615773
76.338374 56.000000 7.483315
76.366980 59.000000 7.681146
76.395586 62.000000 7.874008
76.424193 56.000000 7.483315
76.452799 61.000000 7.810250
76.481406 55.000000 7.416198
76.510012 69.000000 8.306624
76.538619 62.000000 7.874008
76.567225 61.000000 7.810250
76.595832 59.000000 7.681146
76.624438 55.000000 7.416198
76.653045 58.000000 7.615773
76.681651 67.000000 8.185353
76.710257 49.000000 7.000000
76.738864 57.000000 7.549834
76.767470 59.000000 7.681146
76.796077 43.000000 6.557439
76.824683 34.000000 5.830952
76.853290 35.000000 5.916080
76.881896 41.000000 6.403124
76.910503 46.000000 6.782330
76.939109 52.000000 7.211103
76.967716 49.000000 7.000000
76.996322 43.000000 6.557439
77.024928 41.000000 6.403124
77.053535 51.000000 7.141428
77.082141 30.000000 5.477226
77.110748 37.000000 6.082763
77.139354 32.000000 5.656854
77.167961 38.000000 6.164414
77.196567 46.000000 6.782330
77.225174 36.000000 6.000000
77.253780 38.000000 6.164414
77.282387 41.000000 6.403124
77.310993 40.000000 6.324555
77.339600 50.000000 7.071068
77.368206 41.000000 6.403124
77.396812 49.000000 7.000000
77.425419 37.000000 6.082763
77.454025 48.000000 6.928203
77.482632 45.000000 6.708204
77.511238 36.000000 6.000000
77.539845 33.000000 5.744563
77.568451 42.000000 6.480741
77.597058 29.000000 5.385165
77.625664 36.000000 6.000000
77.654271 36.000000 6.000000
77.682877 33.000000 5.744563
77.711483 34.000000 5.830952
77.740090 35.000000 5.916080
77.768696 32.000000 5.656854
77.797303 34.000000 5.830952
77.825909 43.000000 6.557439
77.854516 47.000000 6.855655
77.883122 30.000000 5.477226
77.911729 33.000000 5.744563
77.940335 28.000000 5.291503
77.968942 41.000000 6.403124
77.997548 30.000000 5.477226
78.026154 34.000000 5.830952
78.054761 40.000000 6.324555
78.083367 37.000000 6.082763
78.111974 36.000000 6.000000
78.140580 38.000000 6.164414
78.169187 28.000000 5.291503
78.197793 27.000000 5.196152
78.226400 33.000000 5.744563
78.255006 36.000000 6.000000
78.283613 27.000000 5.196152
78.312219 30.000000 5.477226
78.340826 20.000000 4.472136
78.369432 33.000000 5.744563
78.398038 33.000000 5.744563
78.426645 31.000000 5.567764
78.455251 36.000000 6.000000
78.483858 35.000000 5.916080
78.512464 37.000000 6.082763
78.541071 35.000000 5.916080
78.569677 29.000000 5.385165
78.598284 31.000000 5.567764
78.626890 29.000000 5.385165
78.655497 30.000000 5.477226
78.684103 38.000000 6.164414
78.712709 34.000000 5.830952
78.741316 29.000000 5.385165
78.769922 26.000000 5.099020
78.798529 33.000000 5.744563
78.827135 30.000000 5.477226
78.855742 32.000000 5.656854
78.884348 40.000000 6.324555
78.912955 29.000000 5.385165
78.941561 20.000000 4.472136
78.970168 21.000000 4.582576
78.998774 30.000000 5.477226
79.027380 40.000000 6.324555
79.055987 31.000000 5.567764
79.084593 32.000000 5.656854
79.113200 34.000000 5.830952
79.141806 25.000000 5.000000
79.170413 32.000000 5.656854
79.199019 33.000000 5.744563
79.227626 39.000000 6.244998
79.256232 31.000000 5.567764
79.284839 21.000000 4.582576
79.313445 34.000000 5.830952
79.342051 29.000000 5.385165
79.370658 36.000000 6.000000
79.399264 31.000000 5.567764
79.427871 39.000000 6.244998
79.456477 31.000000 5.567764
79.485084 37.000000 6.082763
79.513690 48.000000 6.928203
79.542297 41.000000 6.403124
79.570903 42.000000 6.480741
79.599510 26.000000 5.099020
79.628116 41.000000 6.403124
79.656723 49.000000 7.000000
79.685329 51.000000 7.141428
79.713935 37.000000 6.082763
79.742542 55.000000 7.416198
79.771148 45.000000 6.708204
79.799755 40.000000 6.324555
79.828361 39.000000 6.244998
79.856968 43.000000 6.557439
79.885574 40.000000 6.324555
79.914181 41.000000 6.403124
79.942787 36.000000 6.000000
79.971394 45.000000 6.708204
80.000000 42.000000 6.480741
