# Two-Theta Intensity Error
10.000100 1493.000000 38.639358
10.035900 1492.000000 38.626416
10.071600 1385.000000 37.215588
10.107400 1490.000000 38.600518
10.143100 1470.000000 38.340579
10.178900 1452.000000 38.105118
10.214600 1431.000000 37.828561
10.250400 1418.000000 37.656341
10.286200 1478.000000 38.444766
10.321900 1395.000000 37.349699
10.357700 1415.000000 37.616486
10.393400 1376.000000 37.094474
10.429200 1427.000000 37.775654
10.464900 1441.000000 37.960506
10.500700 1401.000000 37.429935
10.536400 1346.000000 36.687873
10.572200 1346.000000 36.687873
10.608000 1397.000000 37.376463
10.643700 1338.000000 36.578682
10.679500 1358.000000 36.851052
10.715200 1422.000000 37.709415
10.751000 1355.000000 36.810325
10.786700 1402.000000 37.443290
10.822500 1267.000000 35.594943
10.858300 1405.000000 37.483330
10.894000 1333.000000 36.510273
10.929800 1332.000000 36.496575
10.965500 1313.000000 36.235342
11.001300 1365.000000 36.945906
11.037000 1294.000000 35.972211
11.072800 1257.000000 35.454196
11.108500 1303.000000 36.097091
11.144300 1302.000000 36.083237
11.180100 1282.000000 35.805028
11.215800 1221.000000 34.942810
11.251600 1310.000000 36.193922
11.287300 1334.000000 36.523965
11.323100 1203.000000 34.684290
11.358800 1238.000000 35.185224
11.394600 1235.000000 35.142567
11.430400 1253.000000 35.397740
11.466100 1255.000000 35.425979
11.501900 1208.000000 34.756294
11.537600 1268.000000 35.608988
11.573400 1242.000000 35.242020
11.609100 1171.000000 34.219877
11.644900 1191.000000 34.510868
11.680700 1146.000000 33.852622
11.716400 1180.000000 34.351128
11.752200 1171.000000 34.219877
11.787900 1153.000000 33.955854
11.823700 1165.000000 34.132096
11.859400 1117.000000 33.421550
11.895200 1084.000000 32.924155
11.930900 1090.000000 33.015148
11.966700 1144.000000 33.823069
12.002500 1099.000000 33.151169
12.038200 1075.000000 32.787193
12.074000 1067.000000 32.664966
12.109700 1126.000000 33.555923
12.145500 1127.000000 33.570821
12.181200 1070.000000 32.710854
12.217000 1019.000000 31.921779
12.252800 1045.000000 32.326460
12.288500 999.000000 31.606961
12.324300 998.000000 31.591138
12.360000 1018.000000 31.906112
12.395800 938.000000 30.626786
12.431500 991.000000 31.480152
12.467300 1030.000000 32.093613
12.503000 954.000000 30.886890
12.538800 1070.000000 32.710854
12.574600 1172.000000 34.234486
12.610300 1336.000000 36.551334
12.646100 1795.000000 42.367440
12.681800 2440.000000 49.396356
12.717600 2330.000000 48.270074
12.753300 1516.000000 38.935845
12.789100 1043.000000 32.295511
12.824900 916.000000 30.265492
12.860600 875.000000 29.580399
12.896400 849.000000 29.137605
12.932100 809.000000 28.442925
12.967900 743.000000 27.258026
13.003600 847.000000 29.103264
13.039400 771.000000 27.766887
13.075100 786.000000 28.035692
13.110900 774.000000 27.820855
13.146700 728.000000 26.981475
13.182400 735.000000 27.110883
13.218200 720.000000 26.832816
13.253900 718.000000 26.795522
13.289700 744.000000 27.276363
13.325400 692.000000 26.305893
13.361200 687.000000 26.210685
13.397000 713.000000 26.702060
13.432700 704.000000 26.532998
13.468500 687.000000 26.210685
13.504200 661.000000 25.709920
13.540000 664.000000 25.768197
13.575700 667.000000 25.826343
13.611500 655.000000 25.592968
13.647300 684.000000 26.153394
13.683000 665.000000 25.787594
13.718800 639.000000 25.278449
13.754500 666.000000 25.806976
13.790300 629.000000 25.079872
13.826000 628.000000 25.059928
13.861800 615.000000 24.799194
13.897500 594.000000 24.372115
13.933300 589.000000 24.269322
13.969100 553.000000 23.515952
14.004800 670.000000 25.884358
14.040600 641.000000 25.317978
14.076300 583.000000 24.145393
14.112100 596.000000 24.413111
14.147800 638.000000 25.258662
14.183600 650.000000 25.495098
14.219400 672.000000 25.922963
14.255100 625.000000 25.000000
14.290900 708.000000 26.608269
14.326600 690.000000 26.267851
14.362400 645.000000 25.396850
14.398100 635.000000 25.199206
14.433900 635.000000 25.199206
14.469600 548.000000 23.409400
14.505400 514.000000 22.671568
14.541200 532.000000 23.065125
14.576900 544.000000 23.323808
14.612700 513.000000 22.649503
14.648400 489.000000 22.113344
14.684200 516.000000 22.715633
14.719900 526.000000 22.934690
14.755700 549.000000 23.430749
14.791500 501.000000 22.383029
14.827200 472.000000 21.725561
14.863000 489.000000 22.113344
14.898700 485.000000 22.022716
14.934500 512.000000 22.627417
14.970200 507.000000 22.516660
15.006000 502.000000 22.405357
15.041800 490.000000 22.135944
15.077500 475.000000 21.794495
15.113300 486.000000 22.045408
15.149000 481.000000 21.931712
15.184800 483.000000 21.977261
15.220500 461.000000 21.470911
15.256300 467.000000 21.610183
15.292000 463.000000 21.517435
15.327800 477.000000 21.840330
15.363600 458.000000 21.400935
15.399300 442.000000 21.023796
15.435100 480.000000 21.908902
15.470800 463.000000 21.517435
15.506600 492.000000 22.181073
15.542300 454.000000 21.307276
15.578100 493.000000 22.203603
15.613900 460.000000 21.447611
15.649600 440.000000 20.976177
15.685400 458.000000 21.400935
15.721100 458.000000 21.400935
15.756900 470.000000 21.679483
15.792600 484.000000 22.000000
15.828400 515.000000 22.693611
15.864100 516.000000 22.715633
15.899900 492.000000 22.181073
15.935700 544.000000 23.323808
15.971400 564.000000 23.748684
16.007200 656.000000 25.612497
16.042900 613.000000 24.758837
16.078700 686.000000 26.191602
16.114400 704.000000 26.532998
16.150200 657.000000 25.632011
16.186000 555.000000 23.558438
16.221700 549.000000 23.430749
16.257500 484.000000 22.000000
16.293200 477.000000 21.840330
16.329000 429.000000 20.712315
16.364700 394.000000 19.849433
16.400500 427.000000 20.663978
16.436300 425.000000 20.615528
16.472000 401.000000 20.024984
16.507800 406.000000 20.149442
16.543500 405.000000 20.124612
16.579300 381.000000 19.519221
16.615000 359.000000 18.947295
16.650800 383.000000 19.570386
16.686500 340.000000 18.439089
16.722300 378.000000 19.442222
16.758100 362.000000 19.026298
16.793800 350.000000 18.708287
16.829600 327.000000 18.083141
16.865300 337.000000 18.357560
16.901100 325.000000 18.027756
16.936800 340.000000 18.439089
16.972600 344.000000 18.547237
17.008400 334.000000 18.275667
17.044100 325.000000 18.027756
17.079900 308.000000 17.549929
17.115600 310.000000 17.606817
17.151400 297.000000 17.233688
17.187100 279.000000 16.703293
17.222900 301.000000 17.349352
17.258600 343.000000 18.520259
17.294400 291.000000 17.058722
17.330200 295.000000 17.175564
17.365900 273.000000 16.522712
17.401700 288.000000 16.970563
17.437400 287.000000 16.941074
17.473200 296.000000 17.204651
17.508900 262.000000 16.186414
17.544700 298.000000 17.262677
17.580500 284.000000 16.852300
17.616200 261.000000 16.155494
17.652000 283.000000 16.822604
17.687700 286.000000 16.911535
17.723500 220.000000 14.832397
17.759200 281.000000 16.763055
17.795000 263.000000 16.217275
17.830700 248.000000 15.748016
17.866500 247.000000 15.716234
17.902300 219.000000 14.798649
17.938000 260.000000 16.124515
17.973800 243.000000 15.588457
18.009500 232.000000 15.231546
18.045300 227.000000 15.066519
18.081000 241.000000 15.524175
18.116800 239.000000 15.459625
18.152600 264.000000 16.248077
18.188300 233.000000 15.264338
18.224100 211.000000 14.525839
18.259800 252.000000 15.874508
18.295600 242.000000 15.556349
18.331300 215.000000 14.662878
18.367100 225.000000 15.000000
18.402900 240.000000 15.491933
18.438600 236.000000 15.362291
18.474400 242.000000 15.556349
18.510100 207.000000 14.387495
18.545900 243.000000 15.588457
18.581600 237.000000 15.394804
18.617400 250.000000 15.811388
18.653100 204.000000 14.282857
18.688900 183.000000 13.527749
18.724700 224.000000 14.966630
18.760400 211.000000 14.525839
18.796200 207.000000 14.387495
18.831900 213.000000 14.594520
18.867700 231.000000 15.198684
18.903400 218.000000 14.764823
18.939200 229.000000 15.132746
18.975000 185.000000 13.601471
19.010700 183.000000 13.527749
19.046500 216.000000 14.696938
19.082200 191.000000 13.820275
19.118000 193.000000 13.892444
19.153700 197.000000 14.035669
19.189500 195.000000 13.964240
19.225200 202.000000 14.212670
19.261000 208.000000 14.422205
19.296800 188.000000 13.711309
19.332500 182.000000 13.490738
19.368300 190.000000 13.784049
19.404000 200.000000 14.142136
19.439800 189.000000 13.747727
19.475500 182.000000 13.490738
19.511300 187.000000 13.674794
19.547100 159.000000 12.609520
19.582800 204.000000 14.282857
19.618600 159.000000 12.609520
19.654300 176.000000 13.266499
19.690100 183.000000 13.527749
19.725800 158.000000 12.569805
19.761600 162.000000 12.727922
19.797400 177.000000 13.304135
19.833100 191.000000 13.820275
19.868900 195.000000 13.964240
19.904600 173.000000 13.152946
19.940400 184.000000 13.564660
19.976100 180.000000 13.416408
20.011900 174.000000 13.190906
20.047600 184.000000 13.564660
20.083400 187.000000 13.674794
20.119200 148.000000 12.165525
20.154900 179.000000 13.379088
20.190700 170.000000 13.038405
20.226400 201.000000 14.177447
20.262200 147.000000 12.124356
20.297900 173.000000 13.152946
20.333700 179.000000 13.379088
20.369500 195.000000 13.964240
20.405200 175.000000 13.228757
20.441000 178.000000 13.341664
20.476700 172.000000 13.114877
20.512500 173.000000 13.152946
20.548200 160.000000 12.649111
20.584000 172.000000 13.114877
20.619700 162.000000 12.727922
20.655500 174.000000 13.190906
20.691300 142.000000 11.916375
20.727000 162.000000 12.727922
20.762800 154.000000 12.409674
20.798500 157.000000 12.529964
20.834300 160.000000 12.649111
20.870000 167.000000 12.922848
20.905800 152.000000 12.328828
20.941600 163.000000 12.767145
20.977300 197.000000 14.035669
21.013100 160.000000 12.649111
21.048800 150.000000 12.247449
21.084600 141.000000 11.874342
21.120300 152.000000 12.328828
21.156100 153.000000 12.369317
21.191900 141.000000 11.874342
21.227600 165.000000 12.845233
21.263400 159.000000 12.609520
21.299100 149.000000 12.206556
21.334900 149.000000 12.206556
21.370600 167.000000 12.922848
21.406400 138.000000 11.747340
21.442100 166.000000 12.884099
21.477900 153.000000 12.369317
21.513700 135.000000 11.618950
21.549400 133.000000 11.532563
21.585200 146.000000 12.083046
21.620900 155.000000 12.449900
21.656700 133.000000 11.532563
21.692400 130.000000 11.401754
21.728200 154.000000 12.409674
21.764000 122.000000 11.045361
21.799700 141.000000 11.874342
21.835500 131.000000 11.445523
21.871200 113.000000 10.630146
21.907000 157.000000 12.529964
21.942700 127.000000 11.269428
21.978500 131.000000 11.445523
22.014200 135.000000 11.618950
22.050000 155.000000 12.449900
22.085800 157.000000 12.529964
22.121500 145.000000 12.041595
22.157300 149.000000 12.206556
22.193000 144.000000 12.000000
22.228800 128.000000 11.313708
22.264500 144.000000 12.000000
22.300300 127.000000 11.269428
22.336100 130.000000 11.401754
22.371800 149.000000 12.206556
22.407600 146.000000 12.083046
22.443300 117.000000 10.816654
22.479100 144.000000 12.000000
22.514800 140.000000 11.832160
22.550600 142.000000 11.916375
22.586300 128.000000 11.313708
22.622100 145.000000 12.041595
22.657900 139.000000 11.789826
22.693600 135.000000 11.618950
22.729400 143.000000 11.958261
22.765100 137.000000 11.704700
22.800900 141.000000 11.874342
22.836600 115.000000 10.723805
22.872400 136.000000 11.661904
22.908200 156.000000 12.489996
22.943900 143.000000 11.958261
22.979700 140.000000 11.832160
23.015400 150.000000 12.247449
23.051200 135.000000 11.618950
23.086900 156.000000 12.489996
23.122700 98.000000 9.899495
23.158500 118.000000 10.862780
23.194200 135.000000 11.618950
23.230000 132.000000 11.489125
23.265700 133.000000 11.532563
23.301500 119.000000 10.908712
23.337200 141.000000 11.874342
23.373000 144.000000 12.000000
23.408700 131.000000 11.445523
23.444500 128.000000 11.313708
23.480300 130.000000 11.401754
23.516000 151.000000 12.288206
23.551800 128.000000 11.313708
23.587500 154.000000 12.409674
23.623300 162.000000 12.727922
23.659000 171.000000 13.076697
23.694800 241.000000 15.524175
23.730600 301.000000 17.349352
23.766300 342.000000 18.493242
23.802100 276.000000 16.613248
23.837800 236.000000 15.362291
23.873600 185.000000 13.601471
23.909300 155.000000 12.449900
23.945100 158.000000 12.569805
23.980800 137.000000 11.704700
24.016600 135.000000 11.618950
24.052400 172.000000 13.114877
24.088100 143.000000 11.958261
24.123900 159.000000 12.609520
24.159600 163.000000 12.767145
24.195400 166.000000 12.884099
24.231100 175.000000 13.228757
24.266900 168.000000 12.961481
24.302700 198.000000 14.071247
24.338400 223.000000 14.933185
24.374200 200.000000 14.142136
24.409900 263.000000 16.217275
24.445700 325.000000 18.027756
24.481400 239.000000 15.459625
24.517200 215.000000 14.662878
24.553000 187.000000 13.674794
24.588700 176.000000 13.266499
24.624500 194.000000 13.928388
24.660200 207.000000 14.387495
24.696000 182.000000 13.490738
24.731700 178.000000 13.341664
24.767500 208.000000 14.422205
24.803200 156.000000 12.489996
24.839000 191.000000 13.820275
24.874800 194.000000 13.928388
24.910500 199.000000 14.106736
24.946300 174.000000 13.190906
24.982000 188.000000 13.711309
25.017800 169.000000 13.000000
25.053500 223.000000 14.933185
25.089300 245.000000 15.652476
25.125100 233.000000 15.264338
25.160800 212.000000 14.560220
25.196600 242.000000 15.556349
25.232300 266.000000 16.309506
25.268100 341.000000 18.466185
25.303800 359.000000 18.947295
25.339600 384.000000 19.595918
25.375300 457.000000 21.377558
25.411100 600.000000 24.494897
25.446900 956.000000 30.919250
25.482600 1900.000000 43.588989
25.518400 3142.000000 56.053546
25.554100 3128.000000 55.928526
25.589900 2360.000000 48.579831
25.625600 1412.000000 37.576588
25.661400 773.000000 27.802878
25.697200 432.000000 20.784610
25.732900 427.000000 20.663978
25.768700 368.000000 19.183326
25.804400 432.000000 20.784610
25.840200 533.000000 23.086793
25.875900 569.000000 23.853721
25.911700 461.000000 21.470911
25.947400 336.000000 18.330303
25.983200 278.000000 16.673332
26.019000 261.000000 16.155494
26.054700 254.000000 15.937377
26.090500 234.000000 15.297059
26.126200 227.000000 15.066519
26.162000 224.000000 14.966630
26.197700 223.000000 14.933185
26.233500 202.000000 14.212670
26.269300 204.000000 14.282857
26.305000 225.000000 15.000000
26.340800 204.000000 14.282857
26.376500 220.000000 14.832397
26.412300 230.000000 15.165751
26.448000 219.000000 14.798649
26.483800 216.000000 14.696938
26.519600 226.000000 15.033296
26.555300 234.000000 15.297059
26.591100 245.000000 15.652476
26.626800 265.000000 16.278821
26.662600 330.000000 18.165902
26.698300 338.000000 18.384776
26.734100 363.000000 19.052559
26.769800 487.000000 22.068076
26.805600 610.000000 24.698178
26.841400 770.000000 27.748874
26.877100 1076.000000 32.802439
26.912900 1823.000000 42.696604
26.948600 3285.000000 57.314920
26.984400 6168.000000 78.536616
27.020100 8412.000000 91.716956
27.055900 6958.000000 83.414627
27.091700 5389.000000 73.409809
27.127400 3079.000000 55.488738
27.163200 1641.000000 40.509258
27.198900 1081.000000 32.878564
27.234700 706.000000 26.570661
27.270400 492.000000 22.181073
27.306200 380.000000 19.493589
27.341900 307.000000 17.521415
27.377700 288.000000 16.970563
27.413500 256.000000 16.000000
27.449200 246.000000 15.684387
27.485000 208.000000 14.422205
27.520700 228.000000 15.099669
27.556500 197.000000 14.035669
27.592200 179.000000 13.379088
27.628000 182.000000 13.490738
27.663800 197.000000 14.035669
27.699500 200.000000 14.142136
27.735300 205.000000 14.317821
27.771000 202.000000 14.212670
27.806800 188.000000 13.711309
27.842500 202.000000 14.212670
27.878300 192.000000 13.856406
27.914100 195.000000 13.964240
27.949800 145.000000 12.041595
27.985600 155.000000 12.449900
28.021300 144.000000 12.000000
28.057100 144.000000 12.000000
28.092800 144.000000 12.000000
28.128600 163.000000 12.767145
28.164300 131.000000 11.445523
28.200100 145.000000 12.041595
28.235900 137.000000 11.704700
28.271600 153.000000 12.369317
28.307400 150.000000 12.247449
28.343100 159.000000 12.609520
28.378900 148.000000 12.165525
28.414600 166.000000 12.884099
28.450400 147.000000 12.124356
28.486200 137.000000 11.704700
28.521900 151.000000 12.288206
28.557700 155.000000 12.449900
28.593400 135.000000 11.618950
28.629200 147.000000 12.124356
28.664900 140.000000 11.832160
28.700700 140.000000 11.832160
28.736400 131.000000 11.445523
28.772200 145.000000 12.041595
28.808000 123.000000 11.090537
28.843700 142.000000 11.916375
28.879500 132.000000 11.489125
28.915200 108.000000 10.392305
28.951000 118.000000 10.862780
28.986700 123.000000 11.090537
29.022500 123.000000 11.090537
29.058300 98.000000 9.899495
29.094000 130.000000 11.401754
29.129800 86.000000 9.273618
29.165500 107.000000 10.344080
29.201300 110.000000 10.488088
29.237000 104.000000 10.198039
29.272800 120.000000 10.954451
29.308600 105.000000 10.246951
29.344300 102.000000 10.099505
29.380100 88.000000 9.380832
29.415800 97.000000 9.848858
29.451600 109.000000 10.440307
29.487300 103.000000 10.148892
29.523100 83.000000 9.110434
29.558800 116.000000 10.770330
29.594600 110.000000 10.488088
29.630400 111.000000 10.535654
29.666100 92.000000 9.591663
29.701900 110.000000 10.488088
29.737600 104.000000 10.198039
29.773400 105.000000 10.246951
29.809100 80.000000 8.944272
29.844900 98.000000 9.899495
29.880700 113.000000 10.630146
29.916400 108.000000 10.392305
29.952200 99.000000 9.949874
29.987900 100.000000 10.000000
30.023700 100.000000 10.000000
30.059400 109.000000 10.440307
30.095200 90.000000 9.486833
30.130900 106.000000 10.295630
30.166700 106.000000 10.295630
30.202500 93.000000 9.643651
30.238200 94.000000 9.695360
30.274000 117.000000 10.816654
30.309700 120.000000 10.954451
30.345500 91.000000 9.539392
30.381200 87.000000 9.327379
30.417000 107.000000 10.344080
30.452800 102.000000 10.099505
30.488500 89.000000 9.433981
30.524300 134.000000 11.575837
30.560000 135.000000 11.618950
30.595800 130.000000 11.401754
30.631500 106.000000 10.295630
30.667300 112.000000 10.583005
30.703000 101.000000 10.049876
30.738800 103.000000 10.148892
30.774600 102.000000 10.099505
30.810300 115.000000 10.723805
30.846100 106.000000 10.295630
30.881800 101.000000 10.049876
30.917600 91.000000 9.539392
30.953300 101.000000 10.049876
30.989100 96.000000 9.797959
31.024900 106.000000 10.295630
31.060600 88.000000 9.380832
31.096400 102.000000 10.099505
31.132100 108.000000 10.392305
31.167900 107.000000 10.344080
31.203600 96.000000 9.797959
31.239400 105.000000 10.246951
31.275200 97.000000 9.848858
31.310900 102.000000 10.099505
31.346700 104.000000 10.198039
31.382400 88.000000 9.380832
31.418200 87.000000 9.327379
31.453900 90.000000 9.486833
31.489700 95.000000 9.746794
31.525400 110.000000 10.488088
31.561200 97.000000 9.848858
31.597000 108.000000 10.392305
31.632700 100.000000 10.000000
31.668500 103.000000 10.148892
31.704200 111.000000 10.535654
31.740000 104.000000 10.198039
31.775700 87.000000 9.327379
31.811500 103.000000 10.148892
31.847300 87.000000 9.327379
31.883000 101.000000 10.049876
31.918800 97.000000 9.848858
31.954500 99.000000 9.949874
31.990300 90.000000 9.486833
32.026000 111.000000 10.535654
32.061800 103.000000 10.148892
32.097500 102.000000 10.099505
32.133300 91.000000 9.539392
32.169100 93.000000 9.643651
32.204800 97.000000 9.848858
32.240600 91.000000 9.539392
32.276300 94.000000 9.695360
32.312100 104.000000 10.198039
32.347800 98.000000 9.899495
32.383600 99.000000 9.949874
32.419400 115.000000 10.723805
32.455100 93.000000 9.643651
32.490900 115.000000 10.723805
32.526600 97.000000 9.848858
32.562400 92.000000 9.591663
32.598100 92.000000 9.591663
32.633900 93.000000 9.643651
32.669700 98.000000 9.899495
32.705400 99.000000 9.949874
32.741200 90.000000 9.486833
32.776900 96.000000 9.797959
32.812700 94.000000 9.695360
32.848400 121.000000 11.000000
32.884200 89.000000 9.433981
32.919900 88.000000 9.380832
32.955700 100.000000 10.000000
32.991500 97.000000 9.848858
33.027200 92.000000 9.591663
33.063000 104.000000 10.198039
33.098700 93.000000 9.643651
33.134500 95.000000 9.746794
33.170200 97.000000 9.848858
33.206000 99.000000 9.949874
33.241800 100.000000 10.000000
33.277500 84.000000 9.165151
33.313300 102.000000 10.099505
33.349000 110.000000 10.488088
33.384800 109.000000 10.440307
33.420500 150.000000 12.247449
33.456300 119.000000 10.908712
33.492000 115.000000 10.723805
33.527800 123.000000 11.090537
33.563600 163.000000 12.767145
33.599300 186.000000 13.638182
33.635100 216.000000 14.696938
33.670800 193.000000 13.892444
33.706600 172.000000 13.114877
33.742300 126.000000 11.224972
33.778100 115.000000 10.723805
33.813900 127.000000 11.269428
33.849600 132.000000 11.489125
33.885400 138.000000 11.747340
33.921100 129.000000 11.357817
33.956900 122.000000 11.045361
33.992600 112.000000 10.583005
34.028400 128.000000 11.313708
34.064200 126.000000 11.224972
34.099900 94.000000 9.695360
34.135700 111.000000 10.535654
34.171400 116.000000 10.770330
34.207200 96.000000 9.797959
34.242900 108.000000 10.392305
34.278700 141.000000 11.874342
34.314400 123.000000 11.090537
34.350200 102.000000 10.099505
34.386000 127.000000 11.269428
34.421700 110.000000 10.488088
34.457500 122.000000 11.045361
34.493200 122.000000 11.045361
34.529000 115.000000 10.723805
34.564700 138.000000 11.747340
34.600500 141.000000 11.874342
34.636300 152.000000 12.328828
34.672000 136.000000 11.661904
34.707800 170.000000 13.038405
34.743500 168.000000 12.961481
34.779300 184.000000 13.564660
34.815000 200.000000 14.142136
34.850800 266.000000 16.309506
34.886500 281.000000 16.763055
34.922300 343.000000 18.520259
34.958100 458.000000 21.400935
34.993800 534.000000 23.108440
35.029600 694.000000 26.343880
35.065300 1030.000000 32.093613
35.101100 1639.000000 40.484565
35.136800 2368.000000 48.662100
35.172600 2386.000000 48.846699
35.208400 1855.000000 43.069711
35.244100 1672.000000 40.890097
35.279900 1166.000000 34.146742
35.315600 730.000000 27.018512
35.351400 523.000000 22.869193
35.387100 368.000000 19.183326
35.422900 277.000000 16.643317
35.458600 241.000000 15.524175
35.494400 203.000000 14.247807
35.530200 170.000000 13.038405
35.565900 166.000000 12.884099
35.601700 146.000000 12.083046
35.637400 131.000000 11.445523
35.673200 125.000000 11.180340
35.708900 113.000000 10.630146
35.744700 137.000000 11.704700
35.780500 121.000000 11.000000
35.816200 106.000000 10.295630
35.852000 134.000000 11.575837
35.887700 106.000000 10.295630
35.923500 117.000000 10.816654
35.959200 98.000000 9.899495
35.995000 102.000000 10.099505
36.030800 103.000000 10.148892
36.066500 98.000000 9.899495
36.102300 95.000000 9.746794
36.138000 85.000000 9.219544
36.173800 116.000000 10.770330
36.209500 95.000000 9.746794
36.245300 98.000000 9.899495
36.281000 87.000000 9.327379
36.316800 105.000000 10.246951
36.352600 93.000000 9.643651
36.388300 97.000000 9.848858
36.424100 89.000000 9.433981
36.459800 94.000000 9.695360
36.495600 106.000000 10.295630
36.531300 105.000000 10.246951
36.567100 87.000000 9.327379
36.602900 110.000000 10.488088
36.638600 120.000000 10.954451
36.674400 133.000000 11.532563
36.710100 128.000000 11.313708
36.745900 112.000000 10.583005
36.781600 147.000000 12.124356
36.817400 152.000000 12.328828
36.853100 156.000000 12.489996
36.888900 181.000000 13.453624
36.924700 188.000000 13.711309
36.960400 165.000000 12.845233
36.996200 175.000000 13.228757
37.031900 167.000000 12.922848
37.067700 157.000000 12.529964
37.103400 161.000000 12.688578
37.139200 143.000000 11.958261
37.175000 153.000000 12.369317
37.210700 120.000000 10.954451
37.246500 139.000000 11.789826
37.282200 104.000000 10.198039
37.318000 108.000000 10.392305
37.353700 120.000000 10.954451
37.389500 97.000000 9.848858
37.425300 130.000000 11.401754
37.461000 116.000000 10.770330
37.496800 112.000000 10.583005
37.532500 127.000000 11.269428
37.568300 148.000000 12.165525
37.604000 110.000000 10.488088
37.639800 129.000000 11.357817
37.675500 131.000000 11.445523
37.711300 129.000000 11.357817
37.747100 118.000000 10.862780
37.782800 122.000000 11.045361
37.818600 126.000000 11.224972
37.854300 112.000000 10.583005
37.890100 116.000000 10.770330
37.925800 111.000000 10.535654
37.961600 93.000000 9.643651
37.997400 101.000000 10.049876
38.033100 122.000000 11.045361
38.068900 100.000000 10.000000
38.104600 89.000000 9.433981
38.140400 98.000000 9.899495
38.176100 79.000000 8.888194
38.211900 96.000000 9.797959
38.247600 80.000000 8.944272
38.283400 97.000000 9.848858
38.319200 99.000000 9.949874
38.354900 100.000000 10.000000
38.390700 76.000000 8.717798
38.426400 92.000000 9.591663
38.462200 88.000000 9.380832
38.497900 92.000000 9.591663
38.533700 114.000000 10.677078
38.569500 125.000000 11.180340
38.605200 145.000000 12.041595
38.641000 219.000000 14.798649
38.676700 287.000000 16.941074
38.712500 312.000000 17.663522
38.748200 257.000000 16.031220
38.784000 239.000000 15.459625
38.819800 191.000000 13.820275
38.855500 166.000000 12.884099
38.891300 123.000000 11.090537
38.927000 118.000000 10.862780
38.962800 95.000000 9.746794
38.998500 89.000000 9.433981
39.034300 75.000000 8.660254
39.070000 98.000000 9.899495
39.105800 97.000000 9.848858
39.141600 83.000000 9.110434
39.177300 67.000000 8.185353
39.213100 89.000000 9.433981
39.248800 83.000000 9.110434
39.284600 78.000000 8.831761
39.320300 83.000000 9.110434
39.356100 83.000000 9.110434
39.391900 91.000000 9.539392
39.427600 97.000000 9.848858
39.463400 106.000000 10.295630
39.499100 101.000000 10.049876
39.534900 97.000000 9.848858
39.570600 87.000000 9.327379
39.606400 110.000000 10.488088
39.642100 116.000000 10.770330
39.677900 133.000000 11.532563
39.713700 128.000000 11.313708
39.749400 122.000000 11.045361
39.785200 112.000000 10.583005
39.820900 136.000000 11.661904
39.856700 173.000000 13.152946
39.892400 173.000000 13.152946
39.928200 167.000000 12.922848
39.964000 174.000000 13.190906
39.999700 176.000000 13.266499
40.035500 158.000000 12.569805
40.071200 152.000000 12.328828
40.107000 155.000000 12.449900
40.142700 131.000000 11.445523
40.178500 141.000000 11.874342
40.214200 139.000000 11.789826
40.250000 150.000000 12.247449
40.285800 158.000000 12.569805
40.321500 137.000000 11.704700
40.357300 133.000000 11.532563
40.393000 125.000000 11.180340
40.428800 142.000000 11.916375
40.464500 132.000000 11.489125
40.500300 146.000000 12.083046
40.536100 180.000000 13.416408
40.571800 161.000000 12.688578
40.607600 170.000000 13.038405
40.643300 178.000000 13.341664
40.679100 183.000000 13.527749
40.714800 163.000000 12.767145
40.750600 138.000000 11.747340
40.786400 148.000000 12.165525
40.822100 160.000000 12.649111
40.857900 160.000000 12.649111
40.893600 167.000000 12.922848
40.929400 180.000000 13.416408
40.965100 151.000000 12.288206
41.000900 171.000000 13.076697
41.036600 178.000000 13.341664
41.072400 165.000000 12.845233
41.108200 165.000000 12.845233
41.143900 162.000000 12.727922
41.179700 148.000000 12.165525
41.215400 177.000000 13.304135
41.251200 186.000000 13.638182
41.286900 181.000000 13.453624
41.322700 184.000000 13.564660
41.358500 166.000000 12.884099
41.394200 176.000000 13.266499
41.430000 191.000000 13.820275
41.465700 203.000000 14.247807
41.501500 271.000000 16.462078
41.537200 295.000000 17.175564
41.573000 327.000000 18.083141
41.608700 388.000000 19.697716
41.644500 480.000000 21.908902
41.680300 741.000000 27.221315
41.716000 1148.000000 33.882149
41.751800 1421.000000 37.696154
41.787500 1139.000000 33.749074
41.823300 998.000000 31.591138
41.859000 1042.000000 32.280025
41.894800 731.000000 27.037012
41.930600 501.000000 22.383029
41.966300 395.000000 19.874607
42.002100 299.000000 17.291616
42.037800 253.000000 15.905974
42.073600 241.000000 15.524175
42.109300 190.000000 13.784049
42.145100 196.000000 14.000000
42.180900 175.000000 13.228757
42.216600 156.000000 12.489996
42.252400 165.000000 12.845233
42.288100 154.000000 12.409674
42.323900 146.000000 12.083046
42.359600 150.000000 12.247449
42.395400 150.000000 12.247449
42.431100 149.000000 12.206556
42.466900 150.000000 12.247449
42.502700 148.000000 12.165525
42.538400 138.000000 11.747340
42.574200 142.000000 11.916375
42.609900 158.000000 12.569805
42.645700 158.000000 12.569805
42.681400 158.000000 12.569805
42.717200 161.000000 12.688578
42.753000 183.000000 13.527749
42.788700 155.000000 12.449900
42.824500 168.000000 12.961481
42.860200 156.000000 12.489996
42.896000 124.000000 11.135529
42.931700 141.000000 11.874342
42.967500 151.000000 12.288206
43.003200 146.000000 12.083046
43.039000 118.000000 10.862780
43.074800 133.000000 11.532563
43.110500 117.000000 10.816654
43.146300 131.000000 11.445523
43.182000 115.000000 10.723805
43.217800 120.000000 10.954451
43.253500 129.000000 11.357817
43.289300 113.000000 10.630146
43.325100 111.000000 10.535654
43.360800 111.000000 10.535654
43.396600 123.000000 11.090537
43.432300 104.000000 10.198039
43.468100 101.000000 10.049876
43.503800 118.000000 10.862780
43.539600 115.000000 10.723805
43.575400 97.000000 9.848858
43.611100 117.000000 10.816654
43.646900 141.000000 11.874342
43.682600 143.000000 11.958261
43.718400 164.000000 12.806248
43.754100 166.000000 12.884099
43.789900 209.000000 14.456832
43.825600 201.000000 14.177447
43.861400 202.000000 14.212670
43.897200 202.000000 14.212670
43.932900 213.000000 14.594520
43.968700 153.000000 12.369317
44.004400 140.000000 11.832160
44.040200 135.000000 11.618950
44.075900 119.000000 10.908712
44.111700 122.000000 11.045361
44.147500 134.000000 11.575837
44.183200 123.000000 11.090537
44.219000 139.000000 11.789826
44.254700 117.000000 10.816654
44.290500 109.000000 10.440307
44.326200 129.000000 11.357817
44.362000 123.000000 11.090537
44.397700 130.000000 11.401754
44.433500 116.000000 10.770330
44.469300 129.000000 11.357817
44.505000 131.000000 11.445523
44.540800 140.000000 11.832160
44.576500 128.000000 11.313708
44.612300 109.000000 10.440307
44.648000 104.000000 10.198039
44.683800 140.000000 11.832160
44.719600 122.000000 11.045361
44.755300 127.000000 11.269428
44.791100 114.000000 10.677078
44.826800 111.000000 10.535654
44.862600 108.000000 10.392305
44.898300 111.000000 10.535654
44.934100 124.000000 11.135529
44.969800 94.000000 9.695360
45.005600 98.000000 9.899495
45.041400 112.000000 10.583005
45.077100 119.000000 10.908712
45.112900 108.000000 10.392305
45.148600 125.000000 11.180340
45.184400 112.000000 10.583005
45.220100 108.000000 10.392305
45.255900 127.000000 11.269428
45.291700 112.000000 10.583005
45.327400 116.000000 10.770330
45.363200 101.000000 10.049876
45.398900 115.000000 10.723805
45.434700 129.000000 11.357817
45.470400 164.000000 12.806248
45.506200 154.000000 12.409674
45.542000 153.000000 12.369317
45.577700 158.000000 12.569805
45.613500 185.000000 13.601471
45.649200 193.000000 13.892444
45.685000 249.000000 15.779734
45.720700 283.000000 16.822604
45.756500 325.000000 18.027756
45.792200 444.000000 21.071308
45.828000 576.000000 24.000000
45.863800 762.000000 27.604347
45.899500 1096.000000 33.105891
45.935300 1297.000000 36.013886
45.971000 993.000000 31.511903
46.006800 858.000000 29.291637
46.042500 848.000000 29.120440
46.078300 671.000000 25.903668
46.114100 473.000000 21.748563
46.149800 381.000000 19.519221
46.185600 301.000000 17.349352
46.221300 236.000000 15.362291
46.257100 208.000000 14.422205
46.292800 149.000000 12.206556
46.328600 173.000000 13.152946
46.364300 132.000000 11.489125
46.400100 110.000000 10.488088
46.435900 150.000000 12.247449
46.471600 127.000000 11.269428
46.507400 131.000000 11.445523
46.543100 128.000000 11.313708
46.578900 118.000000 10.862780
46.614600 99.000000 9.949874
46.650400 103.000000 10.148892
46.686200 103.000000 10.148892
46.721900 126.000000 11.224972
46.757700 115.000000 10.723805
46.793400 100.000000 10.000000
46.829200 90.000000 9.486833
46.864900 89.000000 9.433981
46.900700 127.000000 11.269428
46.936500 93.000000 9.643651
46.972200 106.000000 10.295630
47.008000 113.000000 10.630146
47.043700 105.000000 10.246951
47.079500 102.000000 10.099505
47.115200 120.000000 10.954451
47.151000 111.000000 10.535654
47.186700 92.000000 9.591663
47.222500 94.000000 9.695360
47.258300 114.000000 10.677078
47.294000 95.000000 9.746794
47.329800 121.000000 11.000000
47.365500 154.000000 12.409674
47.401300 100.000000 10.000000
47.437000 108.000000 10.392305
47.472800 113.000000 10.630146
47.508600 107.000000 10.344080
47.544300 103.000000 10.148892
47.580100 97.000000 9.848858
47.615800 104.000000 10.198039
47.651600 97.000000 9.848858
47.687300 107.000000 10.344080
47.723100 78.000000 8.831761
47.758800 110.000000 10.488088
47.794600 123.000000 11.090537
47.830400 108.000000 10.392305
47.866100 129.000000 11.357817
47.901900 120.000000 10.954451
47.937600 102.000000 10.099505
47.973400 113.000000 10.630146
48.009100 109.000000 10.440307
48.044900 117.000000 10.816654
48.080700 114.000000 10.677078
48.116400 129.000000 11.357817
48.152200 123.000000 11.090537
48.187900 116.000000 10.770330
48.223700 121.000000 11.000000
48.259400 130.000000 11.401754
48.295200 107.000000 10.344080
48.330900 112.000000 10.583005
48.366700 125.000000 11.180340
48.402500 111.000000 10.535654
48.438200 105.000000 10.246951
48.474000 103.000000 10.148892
48.509700 90.000000 9.486833
48.545500 118.000000 10.862780
48.581200 119.000000 10.908712
48.617000 128.000000 11.313708
48.652800 107.000000 10.344080
48.688500 104.000000 10.198039
48.724300 119.000000 10.908712
48.760000 120.000000 10.954451
48.795800 113.000000 10.630146
48.831500 117.000000 10.816654
48.867300 94.000000 9.695360
48.903100 104.000000 10.198039
48.938800 102.000000 10.099505
48.974600 125.000000 11.180340
49.010300 110.000000 10.488088
49.046100 112.000000 10.583005
49.081800 117.000000 10.816654
49.117600 124.000000 11.135529
49.153300 128.000000 11.313708
49.189100 147.000000 12.124356
49.224900 142.000000 11.916375
49.260600 128.000000 11.313708
49.296400 137.000000 11.704700
49.332100 150.000000 12.247449
49.367900 158.000000 12.569805
49.403600 177.000000 13.304135
49.439400 219.000000 14.798649
49.475200 251.000000 15.842980
49.510900 325.000000 18.027756
49.546700 414.000000 20.346990
49.582400 588.000000 24.248711
49.618200 410.000000 20.248457
49.653900 348.000000 18.654758
49.689700 381.000000 19.519221
49.725400 329.000000 18.138357
49.761200 259.000000 16.093477
49.797000 234.000000 15.297059
49.832700 223.000000 14.933185
49.868500 199.000000 14.106736
49.904200 194.000000 13.928388
49.940000 174.000000 13.190906
49.975700 187.000000 13.674794
50.011500 184.000000 13.564660
50.047300 168.000000 12.961481
50.083000 183.000000 13.527749
50.118800 208.000000 14.422205
50.154500 200.000000 14.142136
50.190300 209.000000 14.456832
50.226000 217.000000 14.730920
50.261800 215.000000 14.662878
50.297600 251.000000 15.842980
50.333300 328.000000 18.110770
50.369100 409.000000 20.223748
50.404800 584.000000 24.166092
50.440600 657.000000 25.632011
50.476300 480.000000 21.908902
50.512100 431.000000 20.760539
50.547800 420.000000 20.493902
50.583600 426.000000 20.639767
50.619400 316.000000 17.776389
50.655100 284.000000 16.852300
50.690900 217.000000 14.730920
50.726600 183.000000 13.527749
50.762400 184.000000 13.564660
50.798100 172.000000 13.114877
50.833900 164.000000 12.806248
50.869700 172.000000 13.114877
50.905400 159.000000 12.609520
50.941200 140.000000 11.832160
50.976900 178.000000 13.341664
51.012700 156.000000 12.489996
51.048400 156.000000 12.489996
51.084200 138.000000 11.747340
51.119900 137.000000 11.704700
51.155700 128.000000 11.313708
51.191500 135.000000 11.618950
51.227200 148.000000 12.165525
51.263000 136.000000 11.661904
51.298700 122.000000 11.045361
51.334500 153.000000 12.369317
51.370200 108.000000 10.392305
51.406000 152.000000 12.328828
51.441800 145.000000 12.041595
51.477500 146.000000 12.083046
51.513300 143.000000 11.958261
51.549000 123.000000 11.090537
51.584800 146.000000 12.083046
51.620500 150.000000 12.247449
51.656300 137.000000 11.704700
51.692100 137.000000 11.704700
51.727800 132.000000 11.489125
51.763600 134.000000 11.575837
51.799300 119.000000 10.908712
51.835100 123.000000 11.090537
51.870800 112.000000 10.583005
51.906600 116.000000 10.770330
51.942300 139.000000 11.789826
51.978100 139.000000 11.789826
52.013900 112.000000 10.583005
52.049600 138.000000 11.747340
52.085400 126.000000 11.224972
52.121100 141.000000 11.874342
52.156900 144.000000 12.000000
52.192600 165.000000 12.845233
52.228400 159.000000 12.609520
52.264200 203.000000 14.247807
52.299900 216.000000 14.696938
52.335700 304.000000 17.435596
52.371400 366.000000 19.131126
52.407200 487.000000 22.068076
52.442900 547.000000 23.388031
52.478700 519.000000 22.781571
52.514400 469.000000 21.656408
52.550200 413.000000 20.322401
52.586000 401.000000 20.024984
52.621700 325.000000 18.027756
52.657500 227.000000 15.066519
52.693200 179.000000 13.379088
52.729000 140.000000 11.832160
52.764700 158.000000 12.569805
52.800500 146.000000 12.083046
52.836300 116.000000 10.770330
52.872000 116.000000 10.770330
52.907800 107.000000 10.344080
52.943500 123.000000 11.090537
52.979300 115.000000 10.723805
53.015000 102.000000 10.099505
53.050800 116.000000 10.770330
53.086500 93.000000 9.643651
53.122300 95.000000 9.746794
53.158100 102.000000 10.099505
53.193800 122.000000 11.045361
53.229600 90.000000 9.486833
53.265300 92.000000 9.591663
53.301100 96.000000 9.797959
53.336800 101.000000 10.049876
53.372600 92.000000 9.591663
53.408400 94.000000 9.695360
53.444100 98.000000 9.899495
53.479900 107.000000 10.344080
53.515600 88.000000 9.380832
53.551400 90.000000 9.486833
53.587100 77.000000 8.774964
53.622900 105.000000 10.246951
53.658700 104.000000 10.198039
53.694400 91.000000 9.539392
53.730200 114.000000 10.677078
53.765900 87.000000 9.327379
53.801700 79.000000 8.888194
53.837400 86.000000 9.273618
53.873200 62.000000 7.874008
53.908900 90.000000 9.486833
53.944700 86.000000 9.273618
53.980500 95.000000 9.746794
54.016200 85.000000 9.219544
54.052000 81.000000 9.000000
54.087700 92.000000 9.591663
54.123500 104.000000 10.198039
54.159200 86.000000 9.273618
54.195000 89.000000 9.433981
54.230800 76.000000 8.717798
54.266500 89.000000 9.433981
54.302300 98.000000 9.899495
54.338000 91.000000 9.539392
54.373800 83.000000 9.110434
54.409500 92.000000 9.591663
54.445300 90.000000 9.486833
54.481000 82.000000 9.055385
54.516800 76.000000 8.717798
54.552600 95.000000 9.746794
54.588300 70.000000 8.366600
54.624100 92.000000 9.591663
54.659800 85.000000 9.219544
54.695600 72.000000 8.485281
54.731300 75.000000 8.660254
54.767100 86.000000 9.273618
54.802900 85.000000 9.219544
54.838600 73.000000 8.544004
54.874400 92.000000 9.591663
54.910100 86.000000 9.273618
54.945900 105.000000 10.246951
54.981600 87.000000 9.327379
55.017400 92.000000 9.591663
55.053200 91.000000 9.539392
55.088900 86.000000 9.273618
55.124700 85.000000 9.219544
55.160400 90.000000 9.486833
55.196200 88.000000 9.380832
55.231900 101.000000 10.049876
55.267700 87.000000 9.327379
55.303400 108.000000 10.392305
55.339200 100.000000 10.000000
55.375000 110.000000 10.488088
55.410700 125.000000 11.180340
55.446500 123.000000 11.090537
55.482200 148.000000 12.165525
55.518000 152.000000 12.328828
55.553700 158.000000 12.569805
55.589500 216.000000 14.696938
55.625300 254.000000 15.937377
55.661000 337.000000 18.357560
55.696800 345.000000 18.574176
55.732500 273.000000 16.522712
55.768300 204.000000 14.282857
55.804000 231.000000 15.198684
55.839800 233.000000 15.264338
55.875500 203.000000 14.247807
55.911300 179.000000 13.379088
55.947100 155.000000 12.449900
55.982800 134.000000 11.575837
56.018600 123.000000 11.090537
56.054300 109.000000 10.440307
56.090100 93.000000 9.643651
56.125800 94.000000 9.695360
56.161600 93.000000 9.643651
56.197400 97.000000 9.848858
56.233100 92.000000 9.591663
56.268900 86.000000 9.273618
56.304600 83.000000 9.110434
56.340400 84.000000 9.165151
56.376100 85.000000 9.219544
56.411900 94.000000 9.695360
56.447700 85.000000 9.219544
56.483400 82.000000 9.055385
56.519200 69.000000 8.306624
56.554900 85.000000 9.219544
56.590700 71.000000 8.426150
56.626400 91.000000 9.539392
56.662200 71.000000 8.426150
56.697900 76.000000 8.717798
56.733700 62.000000 7.874008
56.769500 73.000000 8.544004
56.805200 89.000000 9.433981
56.841000 64.000000 8.000000
56.876700 76.000000 8.717798
56.912500 77.000000 8.774964
56.948200 78.000000 8.831761
56.984000 89.000000 9.433981
57.019800 71.000000 8.426150
57.055500 83.000000 9.110434
57.091300 64.000000 8.000000
57.127000 74.000000 8.602325
57.162800 92.000000 9.591663
57.198500 87.000000 9.327379
57.234300 75.000000 8.660254
57.270000 84.000000 9.165151
57.305800 87.000000 9.327379
57.341600 83.000000 9.110434
57.377300 81.000000 9.000000
57.413100 81.000000 9.000000
57.448800 83.000000 9.110434
57.484600 91.000000 9.539392
57.520300 73.000000 8.544004
57.556100 100.000000 10.000000
57.591900 77.000000 8.774964
57.627600 103.000000 10.148892
57.663400 83.000000 9.110434
57.699100 78.000000 8.831761
57.734900 105.000000 10.246951
57.770600 101.000000 10.049876
57.806400 88.000000 9.380832
57.842100 67.000000 8.185353
57.877900 93.000000 9.643651
57.913700 96.000000 9.797959
57.949400 111.000000 10.535654
57.985200 113.000000 10.630146
58.020900 96.000000 9.797959
58.056700 98.000000 9.899495
58.092400 115.000000 10.723805
58.128200 128.000000 11.313708
58.164000 154.000000 12.409674
58.199700 164.000000 12.806248
58.235500 190.000000 13.784049
58.271200 174.000000 13.190906
58.307000 189.000000 13.747727
58.342700 196.000000 14.000000
58.378500 206.000000 14.352700
58.414300 179.000000 13.379088
58.450000 174.000000 13.190906
58.485800 138.000000 11.747340
58.521500 139.000000 11.789826
58.557300 123.000000 11.090537
58.593000 125.000000 11.180340
58.628800 120.000000 10.954451
58.664500 86.000000 9.273618
58.700300 85.000000 9.219544
58.736100 94.000000 9.695360
58.771800 95.000000 9.746794
58.807600 81.000000 9.000000
58.843300 92.000000 9.591663
58.879100 72.000000 8.485281
58.914800 84.000000 9.165151
58.950600 79.000000 8.888194
58.986400 79.000000 8.888194
59.022100 82.000000 9.055385
59.057900 75.000000 8.660254
59.093600 96.000000 9.797959
59.129400 76.000000 8.717798
59.165100 75.000000 8.660254
59.200900 70.000000 8.366600
59.236600 75.000000 8.660254
59.272400 81.000000 9.000000
59.308200 74.000000 8.602325
59.343900 68.000000 8.246211
59.379700 78.000000 8.831761
59.415400 72.000000 8.485281
59.451200 75.000000 8.660254
59.486900 84.000000 9.165151
59.522700 71.000000 8.426150
59.558500 55.000000 7.416198
59.594200 70.000000 8.366600
59.630000 61.000000 7.810250
59.665700 69.000000 8.306624
59.701500 61.000000 7.810250
59.737200 67.000000 8.185353
59.773000 51.000000 7.141428
59.808800 74.000000 8.602325
59.844500 72.000000 8.485281
59.880300 59.000000 7.681146
59.916000 73.000000 8.544004
59.951800 70.000000 8.366600
59.987500 72.000000 8.485281
